timestamps,TP9,AF7,AF8,TP10,Right AUX
1743892219.363,970.703,986.816,-158.203,971.191,0.000
1743892219.367,970.703,914.551,-139.648,971.191,0.000
1743892219.371,970.703,-990.723,48.828,971.191,0.000
1743892219.375,970.703,899.414,112.305,971.191,0.000
1743892219.379,970.703,-656.250,-32.715,971.191,0.000
1743892219.383,970.703,-1000.000,-115.723,971.191,0.000
1743892219.387,970.703,640.625,-33.203,971.191,0.000
1743892219.390,970.703,-924.316,83.496,971.680,0.000
1743892219.394,970.703,896.973,-46.387,971.191,0.000
1743892219.398,970.703,987.305,-212.891,971.191,0.000
1743892219.402,970.703,971.191,-45.410,971.191,0.000
1743892219.406,970.703,971.680,147.949,971.191,0.000
1743892219.410,970.703,971.680,24.902,971.191,0.000
1743892219.414,970.703,971.191,-190.430,971.191,0.000
1743892219.418,970.703,971.191,-96.680,971.191,0.000
1743892219.422,970.703,971.191,107.910,971.191,0.000
1743892219.426,970.703,984.375,59.570,971.191,0.000
1743892219.429,970.703,925.293,-110.352,971.191,0.000
1743892219.433,970.703,997.070,-140.625,971.680,0.000
1743892219.437,970.703,942.871,41.504,971.191,0.000
1743892219.441,970.703,-454.590,195.801,971.191,0.000
1743892219.445,970.703,-1000.000,-28.809,971.191,0.000
1743892219.449,970.703,-929.688,-163.086,971.680,0.000
1743892219.453,970.703,-1000.000,34.180,971.680,0.000
1743892219.457,970.703,-947.266,153.809,971.191,0.000
1743892219.461,970.703,-1000.000,17.090,971.680,0.000
1743892219.465,970.703,-233.398,-196.289,971.680,0.000
1743892219.469,970.703,998.535,-104.492,971.191,0.000
1743892219.472,970.703,966.797,129.883,971.191,0.000
1743892219.476,970.703,942.383,52.246,971.680,0.000
1743892219.480,970.703,987.305,-156.738,971.191,0.000
1743892219.484,970.703,906.250,-136.719,971.191,0.000
1743892219.488,970.703,-914.062,75.684,971.191,0.000
1743892219.492,970.703,411.621,87.891,971.191,0.000
1743892219.496,970.703,-945.801,-100.098,971.191,0.000
1743892219.500,970.703,-1000.000,-166.504,971.191,0.000
1743892219.504,970.703,-900.391,41.504,971.680,0.000
1743892219.508,970.703,-1000.000,160.156,971.191,0.000
1743892219.512,970.703,-919.434,-54.199,971.191,0.000
1743892219.515,970.703,523.438,-237.305,971.191,0.000
1743892219.519,970.703,-903.809,-50.781,971.191,0.000
1743892219.523,970.703,896.484,148.926,971.191,0.000
1743892219.527,972.656,-997.070,8.301,971.191,0.000
1743892219.531,972.168,908.203,-147.461,971.191,0.000
1743892219.535,898.926,-956.543,-32.715,971.191,0.000
1743892219.539,-855.957,788.574,166.504,971.191,0.000
1743892219.543,207.031,-678.711,162.109,971.191,0.000
1743892219.547,-639.648,-1000.000,-74.707,971.680,0.000
1743892219.551,778.809,-929.199,-117.676,971.191,0.000
1743892219.554,-919.434,-1000.000,96.191,971.191,0.000
1743892219.558,896.973,-998.047,128.418,971.191,0.000
1743892219.562,987.793,-950.684,-89.355,971.191,0.000
1743892219.566,970.703,-1000.000,-155.762,971.191,0.000
1743892219.570,971.191,-248.535,6.836,971.680,0.000
1743892219.574,970.703,977.051,92.285,971.680,0.000
1743892219.578,987.305,990.234,-87.891,971.191,0.000
1743892219.582,912.109,876.465,-205.078,971.191,0.000
1743892219.586,-989.746,-957.031,-35.156,971.191,0.000
1743892219.590,915.039,828.613,163.574,971.191,0.000
1743892219.594,-662.598,-674.805,94.727,971.191,0.000
1743892219.597,-992.188,-1000.000,-146.973,971.680,0.000
1743892219.601,613.770,269.043,-176.270,971.680,0.000
1743892219.605,-787.598,-801.270,42.969,971.191,0.000
1743892219.609,42.969,636.719,92.285,976.562,0.000
1743892219.613,-1000.000,-916.016,-53.223,953.613,0.000
1743892219.617,380.859,-166.992,-147.949,923.828,0.000
1743892219.621,-792.969,-772.461,23.926,-869.141,0.000
1743892219.625,-117.676,42.969,202.148,-157.715,0.000
1743892219.629,-1000.000,-1000.000,21.484,-821.777,0.000
1743892219.633,-382.324,-973.145,-213.379,833.008,0.000
1743892219.636,936.035,-996.582,-13.184,-887.207,0.000
1743892219.640,-268.066,-939.453,286.133,-487.793,0.000
1743892219.644,0.000,-1000.000,87.891,-1000.000,0.000
1743892219.648,0.000,-857.910,-251.465,535.156,0.000
1743892219.652,0.000,789.551,-151.855,-825.195,0.000
1743892219.656,0.000,514.160,172.363,-61.523,0.000
1743892219.660,0.000,-1000.000,184.570,-1000.000,0.000
1743892219.664,0.000,-948.730,-126.465,-416.992,0.000
1743892219.668,0.000,706.055,-242.188,-939.453,0.000
1743892219.672,0.000,862.305,56.641,524.902,0.000
1743892219.676,0.000,-859.863,225.586,-1000.000,0.000
1743892219.679,0.000,-1000.000,-92.773,-973.633,0.000
1743892219.683,0.000,559.082,-344.727,685.059,0.000
1743892219.687,0.000,996.582,-33.203,933.105,0.000
1743892219.691,-648.926,-630.859,248.535,-776.855,0.000
1743892219.695,-1000.000,-1000.000,-25.879,-1000.000,0.000
1743892219.699,337.891,152.832,-337.402,544.922,0.000
1743892219.703,-955.566,-935.547,-128.906,983.887,0.000
1743892219.707,-468.262,-352.539,284.180,-612.305,0.000
1743892219.711,-1000.000,-1000.000,114.746,-1000.000,0.000
1743892219.715,-488.770,-562.988,-243.652,-94.727,0.000
1743892219.719,981.445,966.309,-221.191,-969.727,0.000
1743892219.722,271.484,502.930,149.902,-243.652,0.000
1743892219.726,-1000.000,-1000.000,184.082,-1000.000,0.000
1743892219.730,-877.930,-949.707,-149.414,-696.777,0.000
1743892219.734,712.402,660.156,-254.883,866.211,0.000
1743892219.738,0.000,-974.609,73.730,747.070,0.000
1743892219.742,0.000,-715.332,255.371,-957.031,0.000
1743892219.746,0.000,-1000.000,-75.684,-981.445,0.000
1743892219.750,0.000,641.602,-336.914,685.547,0.000
1743892219.754,0.000,-877.441,-46.875,-982.422,0.000
1743892219.758,0.000,-397.461,308.594,-710.449,0.000
1743892219.761,0.000,-1000.000,35.156,-1000.000,0.000
1743892219.765,0.000,161.133,-361.328,623.535,0.000
1743892219.769,0.000,-817.871,-156.250,-876.953,0.000
1743892219.773,0.000,88.867,229.004,-433.594,0.000
1743892219.777,0.000,-1000.000,118.164,-1000.000,0.000
1743892219.781,0.000,-594.727,-255.859,237.793,0.000
1743892219.785,-932.129,974.609,-238.770,-787.598,0.000
1743892219.789,714.844,816.406,107.910,414.551,0.000
1743892219.793,-936.035,-869.141,175.781,-1000.000,0.000
1743892219.797,-890.137,-986.816,-179.199,-509.766,0.000
1743892219.801,808.594,716.797,-304.688,-979.980,0.000
1743892219.804,994.629,-987.305,20.020,924.805,0.000
1743892219.808,-707.520,-708.008,265.625,-715.820,0.000
1743892219.812,-1000.000,-1000.000,-47.363,-979.492,0.000
1743892219.816,657.715,645.996,-375.488,760.742,0.000
1743892219.820,-916.992,-943.359,-51.270,-974.609,0.000
1743892219.824,-521.484,-460.449,351.562,-678.711,0.000
1743892219.828,-1000.000,-1000.000,116.699,-1000.000,0.000
1743892219.832,287.598,-245.605,-324.707,601.074,0.000
1743892219.836,-804.688,-928.223,-231.934,-841.309,0.000
1743892219.840,81.055,171.387,184.570,-272.461,0.000
1743892219.844,-1000.000,-1000.000,140.625,-1000.000,0.000
1743892219.847,-485.840,-859.375,-240.234,60.547,0.000
1743892219.851,-967.285,788.086,-196.777,-815.918,0.000
1743892219.855,745.117,733.887,152.832,448.730,0.000
1743892219.859,-901.855,-909.180,200.195,-1000.000,0.000
1743892219.863,-997.070,-1000.000,-64.941,-835.449,0.000
1743892219.867,722.656,-937.500,-196.289,877.441,0.000
1743892219.871,925.293,-1000.000,89.844,788.574,0.000
1743892219.875,-768.066,-1000.000,269.531,-909.668,0.000
1743892219.879,-1000.000,-1000.000,-21.973,-1000.000,0.000
1743892219.883,513.672,-1000.000,-292.480,655.273,0.000
1743892219.886,962.891,-1000.000,0.488,910.156,0.000
1743892219.890,-584.473,-1000.000,303.223,-639.160,0.000
1743892219.894,-1000.000,-1000.000,37.598,-1000.000,0.000
1743892219.898,-615.723,-1000.000,-189.941,-490.723,0.000
1743892219.902,672.363,-1000.000,-50.293,690.430,0.000
1743892219.906,-439.941,-1000.000,238.281,-549.316,0.000
1743892219.910,-1000.000,-1000.000,89.355,-1000.000,0.000
1743892219.914,-908.203,-1000.000,-186.523,-909.668,0.000
1743892219.918,-1000.000,-1000.000,-82.520,-1000.000,0.000
1743892219.922,-1000.000,-1000.000,132.812,-1000.000,0.000
1743892219.926,-923.340,-1000.000,81.543,-1000.000,0.000
1743892219.929,-1000.000,-1000.000,-149.414,-1000.000,0.000
1743892219.933,-795.898,-1000.000,-141.113,-1000.000,0.000
1743892219.937,481.445,-1000.000,91.309,-1000.000,0.000
1743892219.941,-421.875,-1000.000,180.664,-1000.000,0.000
1743892219.945,-1000.000,-1000.000,-57.617,-1000.000,0.000
1743892219.949,-764.160,-1000.000,-172.363,-1000.000,0.000
1743892219.953,539.551,-1000.000,22.949,-1000.000,0.000
1743892219.957,-256.836,-1000.000,212.891,-1000.000,0.000
1743892219.961,-1000.000,-1000.000,15.625,-1000.000,0.000
1743892219.965,-881.348,-1000.000,-191.406,-1000.000,0.000
1743892219.969,643.066,-1000.000,-64.453,-1000.000,0.000
1743892219.972,479.980,-1000.000,161.621,-1000.000,0.000
1743892219.976,-1000.000,-1000.000,68.848,-1000.000,0.000
1743892219.980,-1000.000,-1000.000,-196.289,-1000.000,0.000
1743892219.984,180.176,-1000.000,-168.945,-1000.000,0.000
1743892219.988,841.309,-1000.000,80.566,-1000.000,0.000
1743892219.992,-673.340,-1000.000,127.930,-1000.000,0.000
1743892219.996,-1000.000,-1000.000,-104.004,-1000.000,0.000
1743892220.000,-435.547,-1000.000,-187.012,-1000.000,0.000
1743892220.004,712.402,-1000.000,26.367,-1000.000,0.000
1743892220.008,-479.004,-1000.000,164.551,-1000.000,0.000
1743892220.011,-1000.000,-1000.000,-84.961,-1000.000,0.000
1743892220.015,-794.922,-1000.000,-216.309,-1000.000,0.000
1743892220.019,614.746,-1000.000,-64.941,-1000.000,0.000
1743892220.023,-69.336,-988.770,120.117,-1000.000,0.000
1743892220.027,-1000.000,-960.938,10.742,-1000.000,0.000
1743892220.031,-907.227,-1000.000,-243.652,-1000.000,0.000
1743892220.035,544.434,-63.477,-194.336,-1000.000,0.000
1743892220.039,-955.078,-953.125,54.199,-1000.000,0.000
1743892220.043,-710.938,952.148,25.879,-1000.000,0.000
1743892220.047,-1000.000,919.922,-225.098,-1000.000,0.000
1743892220.051,697.754,974.609,-216.309,-1000.000,0.000
1743892220.054,961.914,995.117,30.273,-1000.000,0.000
1743892220.058,-583.008,-244.629,159.668,-1000.000,0.000
1743892220.062,-1000.000,-1000.000,-62.012,-1000.000,0.000
1743892220.066,-808.594,-823.730,-225.098,-1000.000,0.000
1743892220.070,739.746,562.988,-104.004,-1000.000,0.000
1743892220.074,277.344,-909.180,69.824,-926.758,0.000
1743892220.078,-1000.000,896.973,-56.641,-1000.000,0.000
1743892220.082,-98.633,987.793,-266.113,-794.922,0.000
1743892220.086,-835.938,971.680,-135.742,222.656,0.000
1743892220.090,626.953,971.680,185.059,-619.141,0.000
1743892220.093,-944.824,988.281,62.012,-1000.000,0.000
1743892220.097,-872.070,913.574,-230.469,-689.453,0.000
1743892220.101,858.398,-990.723,-210.449,728.027,0.000
1743892220.105,888.672,923.340,130.371,-124.512,0.000
1743892220.109,-861.816,-675.781,192.383,-1000.000,0.000
1743892220.113,0.000,-937.012,-142.578,-650.879,0.000
1743892220.117,0.000,684.570,-271.484,841.309,0.000
1743892220.121,0.000,-769.531,29.785,996.094,0.000
1743892220.125,0.000,-93.262,264.160,-777.832,0.000
1743892220.129,0.000,-770.508,-24.902,-446.289,0.000
1743892220.133,0.000,783.203,-297.363,-961.426,0.000
1743892220.136,0.000,-926.270,7.324,966.797,0.000
1743892220.140,0.000,898.926,168.945,933.105,0.000
1743892220.144,0.000,988.770,-51.270,981.934,0.000
1743892220.148,0.000,971.680,-186.035,971.191,0.000
1743892220.152,0.000,971.680,-24.902,971.191,0.000
1743892220.156,0.000,971.191,163.574,971.191,0.000
1743892220.160,-919.434,971.191,6.836,971.680,0.000
1743892220.164,766.602,971.191,-229.004,971.191,0.000
1743892220.168,-912.598,971.680,-125.977,971.191,0.000
1743892220.172,-633.789,971.191,137.695,971.191,0.000
1743892220.176,-854.492,973.145,153.320,973.633,0.000
1743892220.179,814.453,969.727,-118.652,968.262,0.000
1743892220.183,-955.566,916.992,-157.227,912.109,0.000
1743892220.187,903.320,-930.664,34.668,-852.539,0.000
1743892220.191,988.281,273.926,161.133,81.055,0.000
1743892220.195,970.703,-1000.000,13.184,-398.926,0.000
1743892220.199,970.703,-772.461,-225.098,874.023,0.000
1743892220.203,970.703,895.996,-78.125,-805.176,0.000
1743892220.207,979.492,762.207,183.594,295.898,0.000
1743892220.211,938.477,-997.070,97.656,-818.359,0.000
1743892220.215,949.707,-823.730,-184.570,463.379,0.000
1743892220.218,-930.176,865.723,-143.066,-731.934,0.000
1743892220.222,-320.312,996.094,125.488,632.324,0.000
1743892220.226,-1000.000,-764.648,207.031,-626.465,0.000
1743892220.230,636.719,-701.172,-173.828,332.520,0.000
1743892220.234,-865.723,953.613,-259.277,-763.184,0.000
1743892220.238,-256.836,-966.309,108.398,813.965,0.000
1743892220.242,-1000.000,-567.383,297.363,-650.391,0.000
1743892220.246,-335.938,-1000.000,-58.594,-98.633,0.000
1743892220.250,-927.734,567.383,-298.828,-907.715,0.000
1743892220.254,551.270,-762.207,-1.465,-912.598,0.000
1743892220.258,-1000.000,268.555,198.730,-53.223,0.000
1743892220.261,-629.883,-987.793,49.316,-625.977,0.000
1743892220.265,977.051,301.270,-253.906,891.602,0.000
1743892220.269,913.574,-850.098,-53.711,-958.984,0.000
1743892220.273,-805.176,890.625,198.730,910.645,0.000
1743892220.277,-828.613,985.352,-2.930,986.328,0.000
1743892220.281,899.902,945.801,-237.793,971.191,0.000
1743892220.285,991.699,946.289,-115.723,971.191,0.000
1743892220.289,-684.570,-931.152,137.695,971.191,0.000
1743892220.293,-1000.000,-179.199,114.746,971.191,0.000
1743892220.297,588.379,-1000.000,-106.445,971.191,0.000
1743892220.300,511.719,310.547,-176.758,971.680,0.000
1743892220.304,-760.742,-887.207,50.781,971.191,0.000
1743892220.308,-45.410,903.320,77.148,971.191,0.000
1743892220.312,-915.527,975.586,-133.301,971.191,0.000
1743892220.316,514.160,971.680,-169.922,971.680,0.000
1743892220.320,-763.184,971.191,64.453,971.680,0.000
1743892220.324,644.043,971.191,205.566,971.191,0.000
1743892220.328,-677.246,987.793,-17.090,971.191,0.000
1743892220.332,239.746,913.574,-196.777,971.191,0.000
1743892220.336,-765.137,-992.188,-3.906,971.191,0.000
1743892220.340,786.621,928.223,212.402,971.191,0.000
1743892220.343,-752.441,-672.363,113.770,971.680,0.000
1743892220.347,-566.895,-912.109,-137.207,971.191,0.000
1743892220.351,-985.840,668.945,-97.656,971.191,0.000
1743892220.355,-987.793,-781.250,212.891,971.191,0.000
1743892220.359,-544.922,348.145,194.336,971.680,0.000
1743892220.363,-1000.000,-758.301,-117.676,971.191,0.000
1743892220.367,602.539,456.543,-195.312,971.191,0.000
1743892220.371,-765.137,-765.137,92.773,971.191,0.000
1743892220.375,-11.719,740.723,150.879,971.191,0.000
1743892220.379,-923.340,-705.078,-47.363,971.191,0.000
1743892220.383,483.887,60.059,-196.289,971.191,0.000
1743892220.386,-748.535,-829.102,-0.977,971.191,0.000
1743892220.390,626.953,896.973,194.336,971.191,0.000
1743892220.394,-564.941,970.215,-37.598,971.680,0.000
1743892220.398,400.879,972.656,-219.727,971.191,0.000
1743892220.402,-744.141,971.680,-10.742,971.191,0.000
1743892220.406,760.254,971.191,186.523,971.191,0.000
1743892220.410,-442.871,971.680,8.789,971.680,0.000
1743892220.414,344.238,971.680,-261.230,971.191,0.000
1743892220.418,-818.359,971.680,-89.844,971.191,0.000
1743892220.422,950.195,971.191,186.523,971.191,0.000
1743892220.425,-447.266,971.680,70.801,971.191,0.000
1743892220.429,-355.469,971.680,-226.562,971.191,0.000
1743892220.433,-991.699,970.703,-173.828,971.191,0.000
1743892220.437,-869.141,973.633,159.668,971.191,0.000
1743892220.441,0.000,963.379,168.945,971.191,0.000
1743892220.445,0.000,971.191,-104.004,971.191,0.000
1743892220.449,0.000,904.297,-62.500,971.191,0.000
1743892220.453,0.000,-925.781,181.152,971.191,0.000
1743892220.457,0.000,517.090,247.070,971.680,0.000
1743892220.461,0.000,-1000.000,66.406,971.191,0.000
1743892220.465,0.000,-775.391,-117.188,971.680,0.000
1743892220.468,0.000,891.602,-27.344,971.191,0.000
1743892220.472,0.000,937.500,158.203,971.191,0.000
1743892220.476,0.000,-763.672,111.328,971.680,0.000
1743892220.480,0.000,-991.699,-132.324,971.680,0.000
1743892220.484,0.000,580.078,-147.461,971.680,0.000
1743892220.488,-992.676,-768.066,114.258,971.680,0.000
1743892220.492,-714.355,-6.348,148.926,971.191,0.000
1743892220.496,-1000.000,-969.238,-112.793,971.680,0.000
1743892220.500,620.605,524.414,-210.938,971.191,0.000
1743892220.504,-823.730,-878.906,68.359,971.191,0.000
1743892220.507,-399.902,890.137,185.059,971.680,0.000
1743892220.511,-1000.000,-997.559,-115.234,971.680,0.000
1743892220.515,583.008,900.879,-277.344,971.191,0.000
1743892220.519,-818.848,-946.289,20.508,971.191,0.000
1743892220.523,124.512,733.398,237.793,971.680,0.000
1743892220.527,-1000.000,-889.648,57.129,971.191,0.000
1743892220.531,-631.836,-853.027,-221.680,971.191,0.000
1743892220.535,948.730,768.555,-104.980,971.680,0.000
1743892220.539,895.020,-951.660,166.992,971.191,0.000
1743892220.543,-836.426,901.855,49.805,971.191,0.000
1743892220.547,-425.293,989.258,-240.723,971.680,0.000
1743892220.550,-906.738,971.191,-113.770,971.680,0.000
1743892220.554,905.273,971.191,216.309,971.191,0.000
1743892220.558,-671.875,983.887,175.781,971.191,0.000
1743892220.562,-1000.000,928.711,-181.152,971.191,0.000
1743892220.566,704.102,988.770,-230.957,971.680,0.000
1743892220.570,966.309,948.730,87.402,971.191,0.000
1743892220.574,-561.035,-354.004,230.469,971.191,0.000
1743892220.578,-1000.000,-1000.000,-56.641,971.191,0.000
1743892220.582,-644.531,-868.652,-239.746,971.680,0.000
1743892220.586,764.160,677.246,-79.590,971.191,0.000
1743892220.590,-182.129,350.098,169.922,971.191,0.000
1743892220.593,-1000.000,-1000.000,43.457,971.191,0.000
1743892220.597,-979.492,-1000.000,-191.895,971.191,0.000
1743892220.601,457.031,35.645,-83.496,971.191,0.000
1743892220.605,377.930,791.504,101.562,971.191,0.000
1743892220.609,-1000.000,-780.762,63.477,987.305,0.000
1743892220.613,-992.676,-1000.000,-210.938,907.715,0.000
1743892220.617,-969.727,-926.758,-173.828,-950.195,0.000
1743892220.621,-1000.000,-1000.000,148.438,888.184,0.000
1743892220.625,-931.152,-918.945,187.988,-622.070,0.000
1743892220.629,-1000.000,-1000.000,-179.688,37.109,0.000
1743892220.632,-222.168,-600.098,-275.879,-822.266,0.000
1743892220.636,950.684,943.848,15.137,952.148,0.000
1743892220.640,-504.883,-254.395,259.766,-473.145,0.000
1743892220.644,-1000.000,-1000.000,18.555,-998.535,0.000
1743892220.648,239.258,394.043,-308.105,677.734,0.000
1743892220.652,-856.445,-799.316,-107.910,-818.848,0.000
1743892220.656,-187.012,147.461,259.766,-277.344,0.000
1743892220.660,-1000.000,-1000.000,135.742,-1000.000,0.000
1743892220.664,-883.789,-950.195,-272.461,395.508,0.000
1743892220.668,679.688,699.707,-234.375,-797.363,0.000
1743892220.672,417.480,658.691,158.203,125.000,0.000
1743892220.675,-1000.000,-1000.000,189.453,-1000.000,0.000
1743892220.679,-968.750,-1000.000,-197.266,-694.336,0.000
1743892220.683,660.156,643.066,-316.406,944.824,0.000
1743892220.687,809.082,917.480,63.965,669.922,0.000
1743892220.691,-903.320,-806.152,265.625,-984.375,0.000
1743892220.695,-1000.000,-1000.000,-121.094,-994.629,0.000
1743892220.699,520.996,558.105,-407.227,704.590,0.000
1743892220.703,941.895,960.938,-54.688,864.258,0.000
1743892220.707,-610.840,-583.984,289.551,-738.281,0.000
1743892220.711,-1000.000,-1000.000,18.066,-1000.000,0.000
1743892220.715,-479.492,-579.102,-302.734,-20.996,0.000
1743892220.718,701.172,691.895,-157.715,882.324,0.000
1743892220.722,0.000,-382.324,270.508,-541.016,0.000
1743892220.726,0.000,-1000.000,72.754,-1000.000,0.000
1743892220.730,0.000,-839.844,-288.574,-743.652,0.000
1743892220.734,0.000,651.855,-277.344,483.398,0.000
1743892220.738,0.000,166.504,199.219,-408.691,0.000
1743892220.742,0.000,-1000.000,215.332,-1000.000,0.000
1743892220.746,0.000,-1000.000,-191.895,-972.168,0.000
1743892220.750,0.000,121.582,-288.574,199.707,0.000
1743892220.754,0.000,858.887,23.438,-177.246,0.000
1743892220.757,0.000,-763.672,222.168,-1000.000,0.000
1743892220.761,0.000,-1000.000,-119.141,-935.059,0.000
1743892220.765,0.000,-926.758,-241.699,-1000.000,0.000
1743892220.769,-1000.000,-1000.000,12.695,-1000.000,0.000
1743892220.773,-940.918,-946.289,132.812,-936.523,0.000
1743892220.777,-1000.000,-1000.000,-89.844,-1000.000,0.000
1743892220.781,-948.730,-919.434,-296.387,-894.531,0.000
1743892220.785,645.996,523.438,-221.680,228.516,0.000
1743892220.789,315.918,-903.809,121.094,-493.164,0.000
1743892220.793,-1000.000,914.062,53.711,-1000.000,0.000
1743892220.797,-918.945,916.504,-262.207,-813.965,0.000
1743892220.800,721.191,-934.570,-207.031,338.379,0.000
1743892220.804,504.883,704.102,159.668,-467.285,0.000
1743892220.808,-972.168,-775.391,202.148,-1000.000,0.000
1743892220.812,-1000.000,-1000.000,-145.508,-913.086,0.000
1743892220.816,0.000,-933.105,-181.641,-1000.000,0.000
1743892220.820,0.000,-1000.000,77.637,-1000.000,0.000
1743892220.824,0.000,-929.199,146.484,-1000.000,0.000
1743892220.828,0.000,-1000.000,-134.766,-1000.000,0.000
1743892220.832,0.000,-623.535,-277.344,-1000.000,0.000
1743892220.836,0.000,827.637,-55.176,-1000.000,0.000
1743892220.840,0.000,-966.797,162.598,-1000.000,0.000
1743892220.843,0.000,929.199,-45.898,-1000.000,0.000
1743892220.847,0.000,921.875,-290.039,-1000.000,0.000
1743892220.851,0.000,-951.172,-96.191,-1000.000,0.000
1743892220.855,0.000,769.043,208.984,-1000.000,0.000
1743892220.859,0.000,-667.969,105.957,-1000.000,0.000
1743892220.863,-1000.000,-1000.000,-236.816,-1000.000,0.000
1743892220.867,366.699,71.777,-247.070,-1000.000,0.000
1743892220.871,985.840,988.281,65.918,-1000.000,0.000
1743892220.875,-638.184,-480.957,166.992,-1000.000,0.000
1743892220.879,-1000.000,-1000.000,-107.910,-1000.000,0.000
1743892220.882,111.816,-160.156,-204.590,-1000.000,0.000
1743892220.886,952.637,-957.031,2.441,-1000.000,0.000
1743892220.890,-509.766,-144.043,184.082,-1000.000,0.000
1743892220.894,-1000.000,-1000.000,-52.734,-1000.000,0.000
1743892220.898,-726.074,-885.254,-249.512,-1000.000,0.000
1743892220.902,790.039,612.305,-88.379,-1000.000,0.000
1743892220.906,237.305,-979.492,119.629,-1000.000,0.000
1743892220.910,-1000.000,-731.445,41.016,-1000.000,0.000
1743892220.914,-913.086,-1000.000,-219.727,-1000.000,0.000
1743892220.918,669.922,682.617,-180.664,-1000.000,0.000
1743892220.922,896.484,-987.793,137.207,-1000.000,0.000
1743892220.925,-853.516,-684.082,127.441,-1000.000,0.000
1743892220.929,-1000.000,-1000.000,-151.367,-1000.000,0.000
1743892220.933,648.438,542.480,-236.816,-1000.000,0.000
1743892220.937,985.352,-978.027,38.574,-1000.000,0.000
1743892220.941,-632.324,-503.418,194.336,-1000.000,0.000
1743892220.945,-1000.000,-1000.000,-85.449,-1000.000,0.000
1743892220.949,96.191,-764.648,-218.262,-1000.000,0.000
1743892220.953,-916.504,781.738,-22.949,-1000.000,0.000
1743892220.957,-252.930,403.320,163.574,-1000.000,0.000
1743892220.961,-1000.000,-1000.000,-29.785,-1000.000,0.000
1743892220.964,-566.406,-938.477,-237.305,-1000.000,0.000
1743892220.968,956.055,706.055,-92.773,-1000.000,0.000
1743892220.972,583.984,805.176,155.273,-1000.000,0.000
1743892220.976,-1000.000,-858.398,93.750,-1000.000,0.000
1743892220.980,-931.152,-1000.000,-183.105,-1000.000,0.000
1743892220.984,780.762,-948.730,-116.211,-1000.000,0.000
1743892220.988,669.922,-963.867,188.477,-1000.000,0.000
1743892220.992,-1000.000,-1000.000,129.883,-1000.000,0.000
1743892220.996,-952.148,-935.547,-179.199,-1000.000,0.000
1743892221.000,613.281,482.422,-263.184,-1000.000,0.000
1743892221.004,-844.727,-814.941,56.641,-1000.000,0.000
1743892221.007,-412.598,-18.066,216.309,-1000.000,0.000
1743892221.011,-1000.000,-1000.000,-32.227,-1000.000,0.000
1743892221.015,416.016,-486.328,-214.355,-1000.000,0.000
1743892221.019,-778.809,965.332,-15.625,-1000.000,0.000
1743892221.023,498.535,957.520,180.176,-1000.000,0.000
1743892221.027,-965.332,-743.164,41.016,-1000.000,0.000
1743892221.031,-202.637,-809.570,-217.285,-1000.000,0.000
1743892221.035,-854.004,936.523,-131.348,-1000.000,0.000
1743892221.039,840.332,944.824,162.598,-1000.000,0.000
1743892221.043,-756.836,-656.250,92.773,-1000.000,0.000
1743892221.047,-880.859,-1000.000,-191.406,-1000.000,0.000
1743892221.050,841.797,364.258,-198.730,-1000.000,0.000
1743892221.054,-959.473,-865.723,61.523,-1000.000,0.000
1743892221.058,-625.977,-322.754,131.348,-1000.000,0.000
1743892221.062,-992.188,-1000.000,-164.062,-1000.000,0.000
1743892221.066,562.988,-1000.000,-207.031,-1000.000,0.000
1743892221.070,-758.789,177.734,68.848,-1000.000,0.000
1743892221.074,334.473,996.094,75.684,-1000.000,0.000
1743892221.078,-842.773,-769.043,-115.723,-1000.000,0.000
1743892221.082,371.094,-353.516,-304.688,-1000.000,0.000
1743892221.086,-758.789,-871.582,-124.023,-1000.000,0.000
1743892221.089,709.961,903.320,113.770,-1000.000,0.000
1743892221.093,-781.738,-711.426,-8.789,-1000.000,0.000
1743892221.097,-198.242,-849.121,-242.676,-1000.000,0.000
1743892221.101,-839.355,841.797,-152.832,-1000.000,0.000
1743892221.105,879.395,-897.949,146.484,-1000.000,0.000
1743892221.109,-685.059,-466.309,71.289,-1000.000,0.000
1743892221.113,-933.105,-1000.000,-211.914,-1000.000,0.000
1743892221.117,786.133,501.465,-244.141,-1000.000,0.000
1743892221.121,-916.016,-767.090,56.152,-1000.000,0.000
1743892221.125,-558.594,454.102,98.145,-1000.000,0.000
1743892221.129,-1000.000,-942.383,-161.621,-1000.000,0.000
1743892221.132,604.004,67.383,-273.926,-1000.000,0.000
1743892221.136,-809.082,-741.699,-11.230,-1000.000,0.000
1743892221.140,-142.090,416.992,148.438,-1000.000,0.000
1743892221.144,-1000.000,-971.680,-94.727,-1000.000,0.000
1743892221.148,164.062,-1000.000,-291.992,-1000.000,0.000
1743892221.152,-803.711,598.633,-94.238,-1000.000,0.000
1743892221.156,683.105,-968.262,149.902,-1000.000,0.000
1743892221.160,-892.578,-747.070,15.625,-1000.000,0.000
1743892221.164,-595.215,-953.613,-252.441,-1000.000,0.000
1743892221.168,-978.516,795.898,-157.715,-1000.000,0.000
1743892221.172,921.387,-997.070,160.156,-1000.000,0.000
1743892221.175,-705.566,-703.125,127.441,-1000.000,0.000
1743892221.179,-1000.000,-1000.000,-236.816,-1000.000,0.000
1743892221.183,667.969,522.949,-264.160,-1000.000,0.000
1743892221.187,-904.785,-796.387,81.055,-1000.000,0.000
1743892221.191,-537.598,483.398,122.070,-1000.000,0.000
1743892221.195,-1000.000,-975.586,-154.785,-1000.000,0.000
1743892221.199,476.562,-225.098,-252.930,-1000.000,0.000
1743892221.203,-826.172,-809.570,-13.672,-1000.000,0.000
1743892221.207,-156.738,610.840,155.273,-1000.000,0.000
1743892221.211,-1000.000,-989.746,-43.945,-1000.000,0.000
1743892221.214,-188.477,-615.723,-248.535,-1000.000,0.000
1743892221.218,-877.441,-937.012,-101.074,-1000.000,0.000
1743892221.222,377.441,664.551,142.578,-1000.000,0.000
1743892221.226,-1000.000,-938.477,10.254,-1000.000,0.000
1743892221.230,-892.090,-1000.000,-253.418,-1000.000,0.000
1743892221.234,729.004,589.844,-165.527,-1000.000,0.000
1743892221.238,993.164,-963.867,132.812,-1000.000,0.000
1743892221.242,-733.398,-643.066,133.789,-1000.000,0.000
1743892221.246,-1000.000,-1000.000,-166.504,-1000.000,0.000
1743892221.250,661.621,413.574,-238.281,-1000.000,0.000
1743892221.254,-927.246,-905.273,83.008,-1000.000,0.000
1743892221.257,-632.324,906.738,195.801,-1000.000,0.000
1743892221.261,-1000.000,957.520,-142.578,-1000.000,0.000
1743892221.265,638.184,947.266,-250.977,-1000.000,0.000
1743892221.269,-896.484,-957.520,57.129,-1000.000,0.000
1743892221.273,-300.781,-95.215,253.906,-1000.000,0.000
1743892221.277,-1000.000,-1000.000,9.277,-1000.000,0.000
1743892221.281,-641.602,-1000.000,-233.398,-1000.000,0.000
1743892221.285,905.273,381.836,-80.078,-1000.000,0.000
1743892221.289,691.406,975.586,174.805,-998.047,0.000
1743892221.293,-985.840,-808.105,78.613,-1000.000,0.000
1743892221.296,-937.988,-988.281,-245.605,-994.629,0.000
1743892221.300,723.633,640.137,-208.496,-970.703,0.000
1743892221.304,-985.352,-926.270,136.230,-940.430,0.000
1743892221.308,-725.098,913.086,126.465,-1000.000,0.000
1743892221.312,-994.141,929.688,-237.793,-987.793,0.000
1743892221.316,763.672,-974.609,-303.711,300.293,0.000
1743892221.320,943.359,844.238,173.828,-334.473,0.000
1743892221.324,-593.750,-526.367,324.219,-1000.000,0.000
1743892221.328,-1000.000,-1000.000,-71.777,-1000.000,0.000
1743892221.332,-380.371,-750.000,-244.629,-583.496,0.000
1743892221.336,928.223,769.531,-57.617,76.660,0.000
1743892221.339,-196.777,197.754,258.789,-885.742,0.000
1743892221.343,-1000.000,-1000.000,92.773,-1000.000,0.000
1743892221.347,-806.641,-907.227,-235.352,-721.191,0.000
1743892221.351,759.277,655.273,-64.941,-407.715,0.000
1743892221.355,484.863,919.434,309.082,-979.980,0.000
1743892221.359,-1000.000,-740.234,143.066,-1000.000,0.000
1743892221.363,-1000.000,-1000.000,-203.125,-970.703,0.000
1743892221.367,184.082,-928.223,-134.277,-1000.000,0.000
1743892221.371,245.117,-1000.000,150.391,-1000.000,0.000
1743892221.375,-1000.000,-931.641,101.074,-1000.000,0.000
1743892221.379,-1000.000,-1000.000,-174.316,-1000.000,0.000
1743892221.382,-41.016,-855.469,-217.773,-1000.000,0.000
1743892221.386,917.480,708.008,2.930,-1000.000,0.000
1743892221.390,-518.066,86.426,157.227,-1000.000,0.000
1743892221.394,-1000.000,-1000.000,-101.562,-1000.000,0.000
1743892221.398,-501.465,-698.242,-284.180,-1000.000,0.000
1743892221.402,943.359,832.520,-59.082,-1000.000,0.000
1743892221.406,153.320,966.309,156.738,-1000.000,0.000
1743892221.410,-1000.000,-733.398,19.043,-1000.000,0.000
1743892221.414,-874.023,-1000.000,-253.418,-1000.000,0.000
1743892221.418,708.984,679.199,-187.012,-1000.000,0.000
1743892221.421,888.672,-976.074,137.695,-981.445,0.000
1743892221.425,-862.793,-699.219,115.723,-1000.000,0.000
1743892221.429,-1000.000,-1000.000,-224.121,-1000.000,0.000
1743892221.433,676.270,611.328,-242.188,-368.164,0.000
1743892221.437,-988.281,-887.207,126.953,-551.758,0.000
1743892221.441,-687.500,-511.719,220.215,-1000.000,0.000
1743892221.445,-1000.000,-1000.000,-92.773,-1000.000,0.000
1743892221.449,543.945,456.055,-351.562,415.527,0.000
1743892221.453,-922.852,-808.105,-52.734,381.836,0.000
1743892221.457,-532.227,-230.957,262.695,-1000.000,0.000
1743892221.461,-1000.000,-1000.000,-23.438,-1000.000,0.000
1743892221.464,251.465,125.977,-314.941,308.105,0.000
1743892221.468,-812.500,-785.645,-106.934,997.070,0.000
1743892221.472,-59.570,390.137,256.348,-614.258,0.000
1743892221.476,-1000.000,-1000.000,86.914,-1000.000,0.000
1743892221.480,-287.109,-473.633,-263.672,-14.648,0.000
1743892221.484,-890.625,-932.129,-207.031,-923.340,0.000
1743892221.488,589.355,820.801,208.008,-239.258,0.000
1743892221.492,-1000.000,-866.211,229.980,-1000.000,0.000
1743892221.496,-637.695,-690.430,-185.059,-377.441,0.000
1743892221.500,964.844,963.379,-292.969,-969.727,0.000
1743892221.504,923.828,951.660,85.449,724.609,0.000
1743892221.507,-722.168,-692.871,254.395,-922.363,0.000
1743892221.511,-1000.000,-1000.000,-139.648,-944.336,0.000
1743892221.515,670.898,642.090,-377.930,748.535,0.000
1743892221.519,-954.590,-872.070,13.184,-992.188,0.000
1743892221.523,-674.805,-502.930,334.473,-717.285,0.000
1743892221.527,-1000.000,-1000.000,-32.715,-1000.000,0.000
1743892221.531,550.293,463.379,-417.480,604.980,0.000
1743892221.535,-780.762,-770.508,-141.113,-792.969,0.000
1743892221.539,73.242,481.934,235.840,-270.020,0.000
1743892221.543,-1000.000,-963.867,101.074,-1000.000,0.000
1743892221.546,145.020,-45.410,-385.742,509.277,0.000
1743892221.550,-836.914,-825.684,-270.020,-792.969,0.000
1743892221.554,856.934,867.188,173.828,727.051,0.000
1743892221.558,-691.406,-680.176,229.492,-639.648,0.000
1743892221.562,-886.230,-928.711,-187.012,187.988,0.000
1743892221.566,836.426,763.672,-297.363,-783.691,0.000
1743892221.570,-925.781,-859.375,94.727,896.973,0.000
1743892221.574,-565.430,-433.594,326.660,-571.289,0.000
1743892221.578,-1000.000,-1000.000,-38.574,-304.199,0.000
1743892221.582,576.172,523.438,-352.539,-979.980,0.000
1743892221.586,-784.668,-811.035,-17.090,-872.070,0.000
1743892221.589,236.328,628.418,255.859,124.512,0.000
1743892221.593,-1000.000,-924.316,121.094,-758.301,0.000
1743892221.597,-49.805,-565.918,-226.562,628.906,0.000
1743892221.601,-814.941,-944.824,-133.789,-748.535,0.000
1743892221.605,708.008,845.215,232.910,549.316,0.000
1743892221.609,-879.883,-802.734,180.664,-653.809,0.000
1743892221.613,0.000,-986.816,-263.184,426.270,0.000
1743892221.617,0.000,738.281,-277.344,-760.742,0.000
1743892221.621,0.000,-980.957,141.602,771.973,0.000
1743892221.625,0.000,-740.723,249.023,-505.371,0.000
1743892221.629,0.000,-928.711,-156.738,152.344,0.000
1743892221.632,0.000,770.508,-303.711,-816.406,0.000
1743892221.636,0.000,-937.012,66.895,942.383,0.000
1743892221.640,0.000,-354.492,298.828,-554.199,0.000
1743892221.644,0.000,-1000.000,-23.438,-546.387,0.000
1743892221.648,0.000,-499.512,-270.508,926.758,0.000
1743892221.652,0.000,999.512,-9.277,-830.078,0.000
1743892221.656,0.000,615.234,254.883,228.516,0.000
1743892221.660,-1000.000,-1000.000,74.707,-729.980,0.000
1743892221.664,-758.301,-964.844,-274.414,602.539,0.000
1743892221.668,855.469,681.641,-142.090,-773.438,0.000
1743892221.671,809.570,-983.398,207.031,702.637,0.000
1743892221.675,-903.809,-721.680,220.703,-485.840,0.000
1743892221.679,-1000.000,-1000.000,-191.895,393.555,0.000
1743892221.683,687.988,662.109,-229.492,-761.719,0.000
1743892221.687,998.535,-918.457,129.395,821.777,0.000
1743892221.691,-664.062,-407.227,211.914,-407.227,0.000
1743892221.695,-1000.000,-1000.000,-153.320,292.480,0.000
1743892221.699,407.715,-196.289,-273.438,-863.281,0.000
1743892221.703,-937.500,-912.598,14.648,-958.496,0.000
1743892221.707,-429.199,149.414,233.887,-35.645,0.000
1743892221.711,-1000.000,-1000.000,6.836,-284.668,0.000
1743892221.714,-487.305,-893.555,-276.367,942.871,0.000
1743892221.718,943.359,739.258,-99.609,-833.984,0.000
1743892221.722,74.707,618.164,173.828,341.309,0.000
1743892221.726,-1000.000,-1000.000,85.938,-770.020,0.000
1743892221.730,-795.410,-965.332,-271.973,505.859,0.000
1743892221.734,779.297,665.527,-233.887,-747.559,0.000
1743892221.738,878.418,-997.559,165.039,666.504,0.000
1743892221.742,-859.375,-731.445,196.777,-647.949,0.000
1743892221.746,-1000.000,-1000.000,-247.070,253.418,0.000
1743892221.750,679.688,662.598,-311.523,-777.344,0.000
1743892221.753,-982.910,-991.699,103.027,835.938,0.000
1743892221.757,-703.125,-672.363,277.832,-694.824,0.000
1743892221.761,-1000.000,-1000.000,-74.219,-629.395,0.000
1743892221.765,637.207,432.617,-307.129,-976.074,0.000
1743892221.769,-954.590,-864.258,10.254,961.426,0.000
1743892221.773,-596.680,-449.707,346.680,-657.227,0.000
1743892221.777,-1000.000,-1000.000,30.273,-1000.000,0.000
1743892221.781,312.988,300.293,-389.648,638.184,0.000
1743892221.785,-820.801,-794.434,-125.977,-802.734,0.000
1743892221.789,-105.957,40.039,275.391,-304.688,0.000
1743892221.793,-1000.000,-1000.000,139.160,-997.070,0.000
1743892221.796,-379.395,-332.031,-266.602,523.438,0.000
1743892221.800,0.000,-931.152,-195.801,-774.414,0.000
1743892221.804,0.000,801.270,166.016,592.285,0.000
1743892221.808,0.000,-812.500,228.027,-856.445,0.000
1743892221.812,0.000,-1000.000,-189.453,35.156,0.000
1743892221.816,0.000,680.176,-316.406,-796.875,0.000
1743892221.820,0.000,-966.309,113.770,857.910,0.000
1743892221.824,0.000,-697.266,320.801,-703.125,0.000
1743892221.828,0.000,-1000.000,-67.871,-709.961,0.000
1743892221.832,0.000,620.605,-342.285,950.684,0.000
1743892221.836,0.000,-830.078,-33.691,-943.848,0.000
1743892221.839,0.000,-281.738,298.828,-524.902,0.000
1743892221.843,0.000,-1000.000,58.105,-978.027,0.000
1743892221.847,321.289,190.918,-314.453,583.496,0.000
1743892221.851,-788.086,-811.523,-77.148,-748.047,0.000
1743892221.855,567.871,695.312,251.465,345.703,0.000
1743892221.859,-972.168,-892.578,147.461,-784.180,0.000
1743892221.863,-475.586,-753.906,-264.648,459.961,0.000
1743892221.867,-950.195,934.570,-205.566,-764.160,0.000
1743892221.871,921.875,986.328,200.195,760.742,0.000
1743892221.875,-695.801,-666.992,297.363,-578.613,0.000
1743892221.878,-981.445,-1000.000,-137.695,200.195,0.000
1743892221.882,684.570,605.469,-328.613,-810.059,0.000
1743892221.886,-836.426,-796.387,64.453,969.238,0.000
1743892221.890,-416.992,-243.652,286.133,-397.949,0.000
1743892221.894,-1000.000,-1000.000,-42.969,-235.840,0.000
1743892221.898,540.527,417.969,-354.492,-975.098,0.000
1743892221.902,-801.270,-821.777,-17.578,-913.574,0.000
1743892221.906,686.035,821.777,225.098,670.410,0.000
1743892221.910,-771.484,-674.316,57.129,-304.688,0.000
1743892221.914,5.371,-216.309,-235.352,630.371,0.000
1743892221.918,-794.434,-829.590,-133.789,-776.855,0.000
1743892221.921,846.191,871.094,207.520,727.051,0.000
1743892221.925,-700.684,-665.039,206.543,-459.473,0.000
1743892221.929,-861.816,-1000.000,-213.379,425.293,0.000
1743892221.933,846.680,603.027,-232.910,-814.941,0.000
1743892221.937,-920.898,-774.902,133.789,928.711,0.000
1743892221.941,-536.621,-130.371,204.590,39.551,0.000
1743892221.945,-1000.000,-978.516,-129.395,415.039,0.000
1743892221.949,575.195,477.539,-260.742,-919.922,0.000
1743892221.953,-759.277,-737.793,58.105,-936.523,0.000
1743892221.957,83.008,502.441,227.051,416.992,0.000
1743892221.961,-958.008,-855.957,6.836,57.129,0.000
1743892221.964,396.484,200.195,-258.789,919.434,0.000
1743892221.968,-753.906,-736.816,-42.969,-836.426,0.000
1743892221.972,479.004,598.633,197.754,535.645,0.000
1743892221.976,-997.070,-871.582,75.684,-580.078,0.000
1743892221.980,-391.602,-1000.000,-208.984,552.734,0.000
1743892221.984,-930.664,654.785,-159.668,-757.812,0.000
1743892221.988,919.434,-976.562,164.062,719.727,0.000
1743892221.992,-707.520,-710.938,193.848,-455.078,0.000
1743892221.996,-904.785,-1000.000,-216.797,386.719,0.000
1743892222.000,850.098,666.016,-263.672,-762.207,0.000
1743892222.003,995.117,-935.059,114.258,807.129,0.000
1743892222.007,-699.707,-637.207,282.227,-631.836,0.000
1743892222.011,-1000.000,-1000.000,-104.004,-64.941,0.000
1743892222.015,639.648,597.168,-329.590,-833.008,0.000
1743892222.019,-850.586,-850.098,37.598,956.543,0.000
1743892222.023,-482.910,-413.574,318.848,-513.184,0.000
1743892222.027,-1000.000,-1000.000,58.594,-937.012,0.000
1743892222.031,567.383,338.379,-314.453,729.492,0.000
1743892222.035,-771.973,-770.508,-83.496,-804.688,0.000
1743892222.039,5.371,104.004,267.578,-249.512,0.000
1743892222.043,-1000.000,-1000.000,111.816,-978.516,0.000
1743892222.046,246.094,-66.895,-331.543,534.668,0.000
1743892222.050,-791.016,-872.070,-194.824,-770.508,0.000
1743892222.054,710.938,875.000,245.605,541.992,0.000
1743892222.058,-860.840,-713.379,245.117,-911.133,0.000
1743892222.062,-681.641,-886.230,-219.727,-27.832,0.000
1743892222.066,982.422,875.977,-326.172,-808.594,0.000
1743892222.070,948.730,983.887,115.723,845.215,0.000
1743892222.074,-697.754,-706.543,323.730,-726.074,0.000
1743892222.078,-1000.000,-1000.000,-96.680,-800.781,0.000
1743892222.082,678.223,638.184,-367.188,923.828,0.000
1743892222.086,-892.578,-862.305,-14.648,-997.070,0.000
1743892222.089,-563.477,-465.820,342.285,-651.855,0.000
1743892222.093,-1000.000,-1000.000,35.645,-1000.000,0.000
1743892222.097,550.781,421.387,-394.531,598.145,0.000
1743892222.101,-769.043,-775.879,-107.422,-775.879,0.000
1743892222.105,227.051,444.336,270.996,-95.703,0.000
1743892222.109,-1000.000,-1000.000,137.695,-1000.000,0.000
1743892222.113,131.836,-266.113,-290.527,426.758,0.000
1743892222.117,-783.691,-861.328,-228.516,-769.043,0.000
1743892222.121,714.844,800.781,198.242,548.828,0.000
1743892222.125,-862.793,-809.570,252.930,-962.891,0.000
1743892222.128,0.000,-928.223,-147.949,-377.441,0.000
1743892222.132,0.000,810.547,-307.617,-899.902,0.000
1743892222.136,0.000,997.070,51.270,864.258,0.000
1743892222.140,0.000,-707.520,266.113,-726.074,0.000
1743892222.144,0.000,-1000.000,-72.754,-1000.000,0.000
1743892222.148,0.000,667.480,-354.004,721.680,0.000
1743892222.152,0.000,-953.613,-29.785,-995.605,0.000
1743892222.156,0.000,-475.586,323.242,-682.617,0.000
1743892222.160,0.000,-1000.000,30.762,-1000.000,0.000
1743892222.164,0.000,-170.410,-377.441,536.133,0.000
1743892222.168,0.000,-955.566,-177.734,-954.590,0.000
1743892222.171,0.000,-270.996,284.668,-559.570,0.000
1743892222.175,-1000.000,-1000.000,164.062,-1000.000,0.000
1743892222.179,-933.594,-926.758,-146.484,-926.270,0.000
1743892222.183,-1000.000,-1000.000,-78.125,-1000.000,0.000
1743892222.187,-1000.000,-1000.000,78.125,-1000.000,0.000
1743892222.191,-1000.000,-1000.000,54.199,-1000.000,0.000
1743892222.195,-1000.000,-1000.000,-126.953,-1000.000,0.000
1743892222.199,-1000.000,-1000.000,-147.949,-1000.000,0.000
1743892222.203,-1000.000,-1000.000,39.551,-1000.000,0.000
1743892222.207,-941.895,-950.195,86.914,-997.559,0.000
1743892222.211,-1000.000,-1000.000,-88.867,-1000.000,0.000
1743892222.214,-874.023,-948.730,-174.805,-988.770,0.000
1743892222.218,503.418,471.680,-102.539,-979.980,0.000
1743892222.222,-763.184,-898.438,16.113,-923.828,0.000
1743892222.226,438.477,897.461,-49.316,-1000.000,0.000
1743892222.230,-534.668,984.375,-183.105,-832.031,0.000
1743892222.234,726.074,971.680,-143.066,449.707,0.000
1743892222.238,-938.477,971.680,116.211,-425.781,0.000
1743892222.242,-704.102,988.281,83.496,-1000.000,0.000
1743892222.246,-1000.000,911.621,-142.090,-903.320,0.000
1743892222.250,689.941,-967.773,-229.980,421.387,0.000
1743892222.253,963.379,837.891,34.180,-149.902,0.000
1743892222.257,-675.293,-626.953,180.664,-1000.000,0.000
1743892222.261,-1000.000,-1000.000,-84.473,-924.316,0.000
1743892222.265,-925.781,-926.758,-157.715,-1000.000,0.000
1743892222.269,-1000.000,-1000.000,10.742,-1000.000,0.000
1743892222.273,-937.500,-942.383,28.809,-924.316,0.000
1743892222.277,-1000.000,-1000.000,-97.656,-1000.000,0.000
1743892222.281,-834.473,-891.113,-209.473,-816.895,0.000
1743892222.285,636.719,567.871,-194.824,466.797,0.000
1743892222.289,-922.363,-907.227,65.430,-405.273,0.000
1743892222.293,912.109,895.996,26.855,-1000.000,0.000
1743892222.296,916.016,932.129,-168.945,-711.914,0.000
1743892222.300,-911.133,-913.574,-143.066,537.109,0.000
1743892222.304,518.555,226.562,153.809,-425.293,0.000
1743892222.308,-908.203,-1000.000,184.082,-1000.000,0.000
1743892222.312,-1000.000,-998.535,-101.562,-909.180,0.000
1743892222.316,-946.777,-968.750,-115.234,-1000.000,0.000
1743892222.320,-1000.000,-1000.000,76.172,-1000.000,0.000
1743892222.324,-928.711,-927.246,62.500,-912.598,0.000
1743892222.328,-1000.000,-1000.000,-107.910,-1000.000,0.000
1743892222.332,-613.770,-665.039,-187.500,-523.926,0.000
1743892222.336,905.273,809.570,-98.633,634.277,0.000
1743892222.339,994.629,-959.473,95.215,-554.688,0.000
1743892222.343,-715.820,926.270,-18.555,-1000.000,0.000
1743892222.347,-872.559,921.387,-205.078,-665.527,0.000
1743892222.351,959.473,-944.824,-160.645,538.086,0.000
1743892222.355,631.836,750.977,142.090,-499.512,0.000
1743892222.359,-929.688,-729.980,165.527,-1000.000,0.000
1743892222.363,-1000.000,-1000.000,-96.680,-908.691,0.000
1743892222.367,-946.777,-936.035,-82.031,-1000.000,0.000
1743892222.371,-1000.000,-995.605,124.512,-1000.000,0.000
1743892222.375,-963.379,-977.051,40.527,-950.684,0.000
1743892222.378,-1000.000,-1000.000,-116.699,-1000.000,0.000
1743892222.382,-79.102,106.445,-156.250,-389.160,0.000
1743892222.386,-815.430,-911.133,-36.621,-128.906,0.000
1743892222.390,432.129,920.410,93.750,-1000.000,0.000
1743892222.394,-1000.000,982.422,-51.758,-1000.000,0.000
1743892222.398,-215.820,916.016,-134.277,-976.562,0.000
1743892222.402,-809.570,-974.121,11.719,-1000.000,0.000
1743892222.406,500.488,860.840,138.672,-1000.000,0.000
1743892222.410,0.000,-598.145,44.434,-1000.000,0.000
1743892222.414,0.000,-1000.000,-111.816,-1000.000,0.000
1743892222.418,0.000,-923.340,-11.230,-1000.000,0.000
1743892222.421,0.000,-963.379,108.887,-996.582,0.000
1743892222.425,0.000,-1000.000,10.742,-1000.000,0.000
1743892222.429,0.000,-206.543,-150.391,-995.117,0.000
1743892222.433,0.000,944.336,-142.578,-933.105,0.000
1743892222.437,0.000,-976.074,39.551,-980.469,0.000
1743892222.441,0.000,815.430,52.734,-1000.000,0.000
1743892222.445,0.000,-610.840,-41.016,-995.605,0.000
1743892222.449,0.000,-1000.000,-86.426,-1000.000,0.000
1743892222.453,0.000,-942.871,31.738,-1000.000,0.000
1743892222.457,-501.465,-958.984,90.820,-1000.000,0.000
1743892222.460,-1000.000,-1000.000,-77.148,-1000.000,0.000
1743892222.464,-717.285,-891.113,-150.879,-1000.000,0.000
1743892222.468,683.105,567.871,-62.500,-1000.000,0.000
1743892222.472,-933.594,-909.180,58.105,-1000.000,0.000
1743892222.476,913.574,902.832,-14.648,-1000.000,0.000
1743892222.480,942.871,964.844,-147.949,-1000.000,0.000
1743892222.484,993.164,948.242,-63.965,-1000.000,0.000
1743892222.488,937.500,-949.219,98.145,-1000.000,0.000
1743892222.492,-356.445,-142.090,73.730,-1000.000,0.000
1743892222.496,-1000.000,-1000.000,-64.453,-1000.000,0.000
1743892222.500,-412.598,-947.754,-62.012,-1000.000,0.000
1743892222.503,738.770,-1000.000,78.125,-1000.000,0.000
1743892222.507,-500.977,-931.152,71.777,-1000.000,0.000
1743892222.511,-1000.000,-1000.000,-74.707,-1000.000,0.000
1743892222.515,-166.504,-708.008,-127.441,-1000.000,0.000
1743892222.519,971.191,770.020,-66.406,-1000.000,0.000
1743892222.523,970.215,-949.707,42.969,-1000.000,0.000
1743892222.527,955.566,922.363,-63.965,-1000.000,0.000
1743892222.531,921.387,931.152,-175.781,-1000.000,0.000
1743892222.535,-976.074,-974.609,-22.949,-1000.000,0.000
1743892222.539,860.352,861.816,124.512,-1000.000,0.000
1743892222.543,-544.434,-596.680,85.449,-1000.000,0.000
1743892222.546,-1000.000,-1000.000,-59.570,-1000.000,0.000
1743892222.550,0.000,-927.246,-35.156,-1000.000,0.000
1743892222.554,0.000,-1000.000,122.559,-1000.000,0.000
1743892222.558,0.000,-941.895,81.543,-998.535,0.000
1743892222.562,0.000,-1000.000,-113.281,-1000.000,0.000
1743892222.566,0.000,-302.246,-153.809,-966.309,0.000
1743892222.570,0.000,976.562,-4.395,-967.773,0.000
1743892222.574,0.000,977.051,57.129,-1000.000,0.000
1743892222.578,0.000,952.637,-114.746,-1000.000,0.000
1743892222.582,0.000,923.340,-115.234,-994.141,0.000
1743892222.585,0.000,-974.609,83.984,-992.676,0.000
1743892222.589,0.000,862.305,162.109,-1000.000,0.000
1743892222.593,0.000,-596.680,90.332,-1000.000,0.000
1743892222.597,-1000.000,-1000.000,-59.570,-1000.000,0.000
1743892222.601,262.695,-937.988,-19.043,-1000.000,0.000
1743892222.605,573.242,-972.168,141.602,-1000.000,0.000
1743892222.609,-1000.000,-1000.000,78.125,-1000.000,0.000
1743892222.613,-950.195,-986.816,-88.379,-1000.000,0.000
1743892222.617,589.355,401.855,-93.262,-1000.000,0.000
1743892222.621,-919.434,-892.578,100.586,-1000.000,0.000
1743892222.625,897.461,898.438,118.164,-1000.000,0.000
1743892222.628,993.164,999.512,-77.637,-1000.000,0.000
1743892222.632,907.715,901.855,-98.633,-1000.000,0.000
1743892222.636,-933.594,-933.594,107.910,-1000.000,0.000
1743892222.640,466.797,701.172,154.297,-1000.000,0.000
1743892222.644,-1000.000,-779.297,6.348,-1000.000,0.000
1743892222.648,-940.430,-1000.000,-99.609,-1000.000,0.000
1743892222.652,674.316,-949.707,13.672,-1000.000,0.000
1743892222.656,38.574,-959.961,147.461,-1000.000,0.000
1743892222.660,-1000.000,-1000.000,-4.883,-1000.000,0.000
1743892222.664,-805.176,-891.113,-157.715,-1000.000,0.000
1743892222.668,600.098,567.871,-119.629,-1000.000,0.000
1743892222.671,-916.992,-908.691,12.695,-1000.000,0.000
1743892222.675,912.598,910.645,-10.254,-1000.000,0.000
1743892222.679,931.152,939.941,-167.480,-1000.000,0.000
1743892222.683,-979.980,999.023,-133.789,-1000.000,0.000
1743892222.687,876.465,938.477,65.918,-1000.000,0.000
1743892222.691,-573.242,-468.262,110.352,-1000.000,0.000
1743892222.695,-1000.000,-1000.000,-114.258,-1000.000,0.000
1743892222.699,-925.781,-926.758,-154.297,-1000.000,0.000
1743892222.703,-1000.000,-1000.000,31.738,-1000.000,0.000
1743892222.707,-931.641,-941.406,27.832,-1000.000,0.000
1743892222.710,-1000.000,-1000.000,-123.047,-1000.000,0.000
1743892222.714,-728.027,-876.953,-184.082,-1000.000,0.000
1743892222.718,743.652,586.914,-118.652,-1000.000,0.000
1743892222.722,-945.312,-912.109,-8.301,-1000.000,0.000
1743892222.726,921.387,914.062,-103.027,-1000.000,0.000
1743892222.730,924.805,919.434,-200.195,-1000.000,0.000
1743892222.734,-963.379,-937.500,-69.336,-1000.000,0.000
1743892222.738,0.000,708.984,105.469,-1000.000,0.000
1743892222.742,0.000,-765.137,99.121,-1000.000,0.000
1743892222.746,0.000,-1000.000,-55.176,-1000.000,0.000
1743892222.750,0.000,-933.105,-57.617,-1000.000,0.000
1743892222.753,0.000,-1000.000,99.121,-1000.000,0.000
1743892222.757,0.000,-1000.000,145.508,-1000.000,0.000
1743892222.761,0.000,-1000.000,-38.574,-1000.000,0.000
1743892222.765,0.000,-1000.000,-118.652,-1000.000,0.000
1743892222.769,0.000,-1000.000,37.598,-1000.000,0.000
1743892222.773,0.000,-1000.000,116.699,-1000.000,0.000
1743892222.777,0.000,-1000.000,10.254,-1000.000,0.000
1743892222.781,0.000,-1000.000,-66.895,-1000.000,0.000
1743892222.785,815.918,-1000.000,10.742,-1000.000,0.000
1743892222.789,-615.723,-1000.000,88.867,-1000.000,0.000
1743892222.792,-1000.000,-1000.000,15.137,-1000.000,0.000
1743892222.796,63.477,-1000.000,-123.047,-1000.000,0.000
1743892222.800,954.102,-1000.000,-84.473,-1000.000,0.000
1743892222.804,-619.629,-1000.000,86.426,-1000.000,0.000
1743892222.808,-1000.000,-1000.000,63.965,-1000.000,0.000
1743892222.812,315.918,-1000.000,-126.465,-1000.000,0.000
1743892222.816,-829.102,-1000.000,-159.180,-1000.000,0.000
1743892222.820,-66.406,-1000.000,2.930,-1000.000,0.000
1743892222.824,-1000.000,-934.570,45.898,-1000.000,0.000
1743892222.828,-368.652,-1000.000,-114.258,-1000.000,0.000
1743892222.832,-358.398,-795.410,-199.707,-1000.000,0.000
1743892222.835,906.250,682.129,-111.816,-1000.000,0.000
1743892222.839,998.535,-930.176,-21.484,-1000.000,0.000
1743892222.843,941.406,917.480,-154.297,-1000.000,0.000
1743892222.847,913.086,928.711,-243.652,-1000.000,0.000
1743892222.851,-925.293,-967.773,-84.961,-1000.000,0.000
1743892222.855,621.094,837.891,52.246,-1000.000,0.000
1743892222.859,-833.984,-627.441,-27.832,-1000.000,0.000
1743892222.863,-1000.000,-1000.000,-194.336,-1000.000,0.000
1743892222.867,-938.965,-926.758,-123.047,-1000.000,0.000
1743892222.871,-1000.000,-1000.000,42.480,-1000.000,0.000
1743892222.875,-932.129,-941.895,-45.898,-1000.000,0.000
1743892222.878,-1000.000,-1000.000,-208.008,-1000.000,0.000
1743892222.882,-754.395,-882.324,-191.895,-1000.000,0.000
1743892222.886,887.207,579.590,-62.500,-1000.000,0.000
1743892222.890,838.379,-910.645,-7.324,-1000.000,0.000
1743892222.894,-762.695,913.086,-116.699,-1000.000,0.000
1743892222.898,168.945,932.129,-178.711,-1000.000,0.000
1743892222.902,-712.891,-980.469,-28.320,-1000.000,0.000
1743892222.906,455.078,880.371,74.707,-1000.000,0.000
1743892222.910,-872.070,-568.848,2.930,-1000.000,0.000
1743892222.914,-1000.000,-1000.000,-110.352,-1000.000,0.000
1743892222.917,-951.172,-925.781,-30.762,-1000.000,0.000
1743892222.921,-994.141,-1000.000,113.281,-1000.000,0.000
1743892222.925,-976.074,-931.641,-10.742,-1000.000,0.000
1743892222.929,-1000.000,-1000.000,-151.855,-1000.000,0.000
1743892222.933,1.465,-735.352,-113.770,-1000.000,0.000
1743892222.937,-761.230,738.281,-31.738,-1000.000,0.000
1743892222.941,381.836,-942.871,-36.133,-1000.000,0.000
1743892222.945,-797.852,921.875,-138.672,-1000.000,0.000
1743892222.949,477.539,921.387,-188.477,-1000.000,0.000
1743892222.953,-750.977,-943.359,-32.715,-1000.000,0.000
1743892222.957,101.562,742.188,78.613,-1000.000,0.000
1743892222.960,-1000.000,-736.328,-39.551,-1000.000,0.000
1743892222.964,-994.629,-1000.000,-153.809,-1000.000,0.000
1743892222.968,-987.793,-944.336,-24.414,-1000.000,0.000
1743892222.972,-950.684,-970.215,64.941,-1000.000,0.000
1743892222.976,-1000.000,-1000.000,-63.965,-1000.000,0.000
1743892222.980,-891.113,-966.309,-151.855,-1000.000,0.000
1743892222.984,567.871,438.965,-142.578,-1000.000,0.000
1743892222.988,-909.668,-895.996,26.367,-960.449,0.000
1743892222.992,912.598,914.062,-20.508,-1000.000,0.000
1743892222.996,928.711,926.270,-169.922,-1000.000,0.000
1743892223.000,-973.633,-976.562,-140.137,12.207,0.000
1743892223.003,855.957,867.676,66.406,-479.004,0.000
1743892223.007,-604.004,-587.891,176.758,-1000.000,0.000
1743892223.011,-1000.000,-1000.000,-8.789,-932.129,0.000
1743892223.015,-925.781,-925.781,-96.191,-1000.000,0.000
1743892223.019,-1000.000,-1000.000,67.871,-1000.000,0.000
1743892223.023,-944.824,-963.867,71.777,-1000.000,0.000
1743892223.027,-1000.000,-1000.000,-84.961,-1000.000,0.000
1743892223.031,-959.961,-1000.000,-136.230,-1000.000,0.000
1743892223.035,567.871,302.246,-84.473,-1000.000,0.000
1743892223.039,-909.668,-890.137,-15.137,-925.781,0.000
1743892223.042,-690.918,918.945,-41.992,-1000.000,0.000
1743892223.046,-871.582,919.922,-160.156,-832.031,0.000
1743892223.050,911.621,-974.609,-162.109,464.844,0.000
1743892223.054,851.074,861.816,100.098,-478.516,0.000
1743892223.058,-649.902,-596.680,129.395,-1000.000,0.000
1743892223.062,-1000.000,-1000.000,-85.938,-909.668,0.000
1743892223.066,-618.652,-925.781,-67.871,-1000.000,0.000
1743892223.070,456.055,-1000.000,50.781,-1000.000,0.000
1743892223.074,-537.598,-942.383,36.621,-1000.000,0.000
1743892223.078,-1000.000,-1000.000,-99.609,-1000.000,0.000
1743892223.082,-742.676,-891.113,-149.414,-1000.000,0.000
1743892223.085,615.723,568.359,-76.660,-1000.000,0.000
1743892223.089,-801.758,-908.691,25.391,-1000.000,0.000
1743892223.093,-246.582,913.574,-75.195,-1000.000,0.000
1743892223.097,-512.207,928.223,-139.648,-1000.000,0.000
1743892223.101,-915.527,-970.703,4.883,-1000.000,0.000
1743892223.105,660.156,849.609,127.441,-1000.000,0.000
1743892223.109,-868.164,-613.770,101.562,-1000.000,0.000
1743892223.113,0.000,-1000.000,-42.969,-1000.000,0.000
1743892223.117,0.000,-935.547,-10.254,-1000.000,0.000
1743892223.121,0.000,-981.934,176.270,-1000.000,0.000
1743892223.125,0.000,-1000.000,72.754,-1000.000,0.000
1743892223.128,0.000,-1000.000,-146.484,-1000.000,0.000
1743892223.132,0.000,283.203,-187.500,-1000.000,0.000
1743892223.136,0.000,-889.648,-56.152,-1000.000,0.000
1743892223.140,0.000,903.809,10.742,-1000.000,0.000
1743892223.144,0.000,994.141,-130.859,-1000.000,0.000
1743892223.148,0.000,904.297,-161.133,-1000.000,0.000
1743892223.152,0.000,-942.871,33.691,-1000.000,0.000
1743892223.156,0.000,739.746,126.953,-1000.000,0.000
1743892223.160,-1000.000,-738.770,-19.043,-1000.000,0.000
1743892223.164,-980.957,-1000.000,-156.250,-1000.000,0.000
1743892223.167,-986.816,-937.988,-8.789,-1000.000,0.000
1743892223.171,-974.121,-992.188,100.586,-1000.000,0.000
1743892223.175,-987.305,-982.910,-50.293,-1000.000,0.000
1743892223.179,-1000.000,-1000.000,-173.340,-1000.000,0.000
1743892223.183,254.883,91.797,-122.559,-1000.000,0.000
1743892223.187,-875.977,-815.430,-12.695,-1000.000,0.000
1743892223.191,-275.879,671.875,11.230,-1000.000,0.000
1743892223.195,-1000.000,-754.883,-68.359,-1000.000,0.000
1743892223.199,-725.098,-1000.000,-74.219,-1000.000,0.000
1743892223.203,493.652,-855.957,65.430,-1000.000,0.000
1743892223.207,-418.457,-914.062,110.840,-1000.000,0.000
1743892223.210,-1000.000,-1000.000,-92.285,-1000.000,0.000
1743892223.214,-576.660,-813.477,-178.711,-1000.000,0.000
1743892223.218,776.367,654.297,-66.895,-1000.000,0.000
1743892223.222,-958.008,-924.805,53.223,-1000.000,0.000
1743892223.226,925.293,915.527,-45.410,-1000.000,0.000
1743892223.230,922.852,930.664,-155.273,-1000.000,0.000
1743892223.234,-952.148,-974.121,-56.641,-1000.000,0.000
1743892223.238,771.484,862.305,115.234,-1000.000,0.000
1743892223.242,-700.195,-597.168,85.938,-1000.000,0.000
1743892223.246,-1000.000,-1000.000,-124.023,-1000.000,0.000
1743892223.250,-930.664,-926.270,-91.309,-1000.000,0.000
1743892223.253,-1000.000,-1000.000,85.449,-1000.000,0.000
1743892223.257,-937.012,-931.641,-9.766,-925.781,0.000
1743892223.261,-1000.000,-1000.000,-144.043,-1000.000,0.000
1743892223.265,-411.133,-466.309,-195.801,-297.852,0.000
1743892223.269,-890.137,917.969,-95.703,452.148,0.000
1743892223.273,387.207,-996.582,92.285,-884.766,0.000
1743892223.277,-1000.000,935.547,-70.312,-1000.000,0.000
1743892223.281,192.871,914.551,-278.809,339.355,0.000
1743892223.285,-770.996,-928.223,-88.867,964.844,0.000
1743892223.289,-18.066,551.270,191.406,-590.820,0.000
1743892223.292,-1000.000,-988.770,73.730,-1000.000,0.000
1743892223.296,-745.605,-891.113,-181.152,-475.098,0.000
1743892223.300,881.836,836.426,-246.094,937.012,0.000
1743892223.304,613.281,824.707,52.246,-19.531,0.000
1743892223.308,-1000.000,-962.402,172.852,-1000.000,0.000
1743892223.312,-763.184,-816.406,-145.996,-414.551,0.000
1743892223.316,878.418,819.824,-248.535,982.910,0.000
1743892223.320,979.004,-890.137,60.547,925.781,0.000
1743892223.324,-701.660,-471.680,230.957,-737.305,0.000
1743892223.328,-1000.000,-1000.000,-15.625,-943.848,0.000
1743892223.332,659.668,624.512,-234.375,804.199,0.000
1743892223.335,-921.875,-836.914,-3.418,999.512,0.000
1743892223.339,-559.082,-354.004,275.391,-707.031,0.000
1743892223.343,-1000.000,-1000.000,103.516,-1000.000,0.000
1743892223.347,400.391,273.926,-245.117,631.836,0.000
1743892223.351,-819.336,-795.410,-89.844,-875.977,0.000
1743892223.355,-71.289,163.086,250.977,-393.555,0.000
1743892223.359,-1000.000,-1000.000,162.598,-1000.000,0.000
1743892223.363,-435.059,-641.113,-145.020,127.441,0.000
1743892223.367,-979.004,919.922,-140.137,-808.594,0.000
1743892223.371,807.617,960.938,126.465,481.445,0.000
1743892223.374,-873.047,-711.426,194.336,-1000.000,0.000
1743892223.378,-901.855,-1000.000,-82.520,-595.215,0.000
1743892223.382,804.688,668.457,-266.113,984.863,0.000
1743892223.386,-974.121,-887.695,-6.836,958.496,0.000
1743892223.390,-685.059,-566.406,248.047,-756.348,0.000
1743892223.394,-949.219,-993.652,20.996,-723.145,0.000
1743892223.398,605.469,568.359,-232.910,814.941,0.000
1743892223.402,-812.012,-813.477,-66.406,-818.359,0.000
1743892223.406,702.637,746.582,120.117,475.586,0.000
1743892223.410,-536.133,-512.207,98.633,-610.840,0.000
1743892223.414,428.223,383.789,-142.578,600.098,0.000
1743892223.417,-833.008,-826.660,-79.590,-863.281,0.000
1743892223.421,878.906,880.859,92.773,871.582,0.000
1743892223.425,-999.512,999.023,15.625,979.980,0.000
1743892223.429,920.410,925.293,-134.277,915.039,0.000
1743892223.433,991.211,992.676,-47.852,-964.844,0.000
1743892223.437,968.262,953.613,138.184,925.293,0.000
1743892223.441,-536.133,-395.996,210.938,-581.543,0.000
1743892223.445,-1000.000,-1000.000,-38.086,15.137,0.000
1743892223.449,476.074,-210.938,-171.875,-880.371,0.000
1743892223.453,-754.883,-850.586,8.301,-937.012,0.000
1743892223.457,146.973,479.004,130.371,-91.797,0.000
1743892223.460,-995.117,-991.211,62.500,-628.418,0.000
1743892223.464,290.039,141.602,-184.570,810.059,0.000
1743892223.468,-763.672,-752.930,-67.871,-788.086,0.000
1743892223.472,583.984,647.461,163.574,310.547,0.000
1743892223.476,-944.824,-848.145,112.793,-793.945,0.000
1743892223.480,-766.113,-1000.000,-121.582,466.309,0.000
1743892223.484,906.738,694.336,-108.887,-753.418,0.000
1743892223.488,959.961,995.605,88.867,708.496,0.000
1743892223.492,-693.848,-665.527,144.043,-622.070,0.000
1743892223.496,-1000.000,-1000.000,-85.449,227.539,0.000
1743892223.499,562.988,304.688,-182.617,-794.922,0.000
1743892223.503,-834.961,-751.465,5.859,922.363,0.000
1743892223.507,-465.332,-159.668,188.965,-478.516,0.000
1743892223.511,-1000.000,-977.051,45.898,-227.539,0.000
1743892223.515,606.934,563.965,-217.773,-935.059,0.000
1743892223.519,-841.309,-790.039,-80.566,-907.715,0.000
1743892223.523,-124.023,159.668,119.141,-125.000,0.000
1743892223.527,-1000.000,-999.023,26.855,-868.652,0.000
1743892223.531,-992.188,-1000.000,-206.055,711.914,0.000
1743892223.535,446.289,207.031,-181.152,-891.602,0.000
1743892223.539,-951.660,-907.715,-74.707,845.703,0.000
1743892223.542,-712.891,912.598,-87.891,769.531,0.000
1743892223.546,-1000.000,971.191,-220.215,939.453,0.000
1743892223.550,712.402,972.656,-167.969,993.164,0.000
1743892223.554,960.449,971.191,33.203,958.008,0.000
1743892223.558,-654.297,980.469,13.184,974.609,0.000
1743892223.562,-1000.000,938.477,-136.230,969.238,0.000
1743892223.566,186.523,967.773,-180.664,956.543,0.000
1743892223.570,947.266,-986.816,-35.156,-965.820,0.000
1743892223.574,-641.113,-290.527,121.582,618.164,0.000
1743892223.578,-1000.000,-1000.000,-55.664,620.605,0.000
1743892223.582,-922.852,-934.570,-208.496,-961.914,0.000
1743892223.585,-1000.000,-1000.000,-30.273,956.055,0.000
1743892223.589,-942.871,-941.895,29.785,968.750,0.000
1743892223.593,-1000.000,-1000.000,-133.789,971.191,0.000
1743892223.597,-879.395,-882.812,-240.234,971.191,0.000
1743892223.601,485.840,578.613,-163.574,971.191,0.000
1743892223.605,-751.953,-911.133,-39.551,971.680,0.000
1743892223.609,436.523,896.973,-105.957,971.191,0.000
1743892223.613,-735.352,-995.605,-196.777,971.191,0.000
1743892223.617,547.852,910.645,-129.883,971.191,0.000
1743892223.621,-867.188,-965.332,44.434,971.191,0.000
1743892223.624,-381.836,825.684,22.949,971.191,0.000
1743892223.628,-1000.000,-638.672,-87.891,971.191,0.000
1743892223.632,-749.512,-1000.000,-138.184,971.191,0.000
1743892223.636,494.629,-898.926,-3.418,971.191,0.000
1743892223.640,-450.195,-1000.000,40.527,971.680,0.000
1743892223.644,-1000.000,-1000.000,-97.656,971.191,0.000
1743892223.648,132.812,193.359,-188.477,971.191,0.000
1743892223.652,980.957,-899.902,-80.566,971.191,0.000
1743892223.656,-922.363,911.621,6.836,971.191,0.000
1743892223.660,593.750,971.191,-112.793,971.680,0.000
1743892223.664,-449.219,989.258,-187.500,971.680,0.000
1743892223.667,719.238,910.645,-88.379,971.191,0.000
1743892223.671,-913.574,-965.820,61.035,971.191,0.000
1743892223.675,-399.902,828.613,20.020,971.191,0.000
1743892223.679,-1000.000,-636.230,-78.125,971.680,0.000
1743892223.683,-645.996,-1000.000,-69.824,971.680,0.000
1743892223.687,380.859,-875.977,29.785,971.191,0.000
1743892223.691,-702.637,-1000.000,20.996,971.191,0.000
1743892223.695,-1000.000,-938.965,-152.344,971.191,0.000
1743892223.699,336.914,486.816,-282.227,971.191,0.000
1743892223.703,-843.262,-900.391,-80.566,971.191,0.000
1743892223.707,807.129,896.973,39.551,971.191,0.000
1743892223.710,-733.887,999.512,-89.355,971.191,0.000
1743892223.714,-445.312,921.387,-152.832,971.191,0.000
1743892223.718,-885.742,-995.117,-30.273,971.191,0.000
1743892223.722,834.473,915.039,95.703,971.191,0.000
1743892223.726,-704.102,-442.871,55.176,971.191,0.000
1743892223.730,-1000.000,-1000.000,-52.246,971.680,0.000
1743892223.734,361.328,-257.812,-64.453,971.191,0.000
1743892223.738,-790.527,952.637,32.715,971.191,0.000
1743892223.742,598.633,981.934,16.113,971.191,0.000
1743892223.746,-550.293,951.660,-77.637,971.191,0.000
1743892223.749,420.410,910.645,-71.777,971.191,0.000
1743892223.753,-750.488,-929.688,71.289,971.680,0.000
1743892223.757,294.922,679.199,73.242,979.492,0.000
1743892223.761,-1000.000,-799.316,-13.184,940.918,0.000
1743892223.765,-801.270,-1000.000,-78.613,945.801,0.000
1743892223.769,558.594,-952.148,4.395,-909.180,0.000
1743892223.773,-401.367,-947.266,132.324,-340.820,0.000
1743892223.777,-1000.000,-1000.000,1.465,-849.121,0.000
1743892223.781,-662.598,-757.324,-195.312,731.934,0.000
1743892223.785,801.758,759.277,-133.301,-839.355,0.000
1743892223.789,990.723,-895.020,41.504,755.859,0.000
1743892223.792,-687.988,-422.852,75.684,-461.914,0.000
1743892223.796,-1000.000,-1000.000,-166.504,346.191,0.000
1743892223.800,630.371,437.500,-207.031,-750.488,0.000
1743892223.804,-994.141,-984.375,18.555,787.109,0.000
1743892223.808,-665.527,-626.465,177.246,-657.227,0.000
1743892223.812,-1000.000,-1000.000,-59.570,-14.648,0.000
1743892223.816,0.000,58.594,-222.656,-867.676,0.000
1743892223.820,0.000,-831.543,-31.250,-959.473,0.000
1743892223.824,0.000,310.059,111.816,-253.906,0.000
1743892223.828,0.000,-1000.000,11.719,-675.293,0.000
1743892223.831,0.000,-561.523,-193.359,909.668,0.000
1743892223.835,0.000,908.691,-85.938,-971.191,0.000
1743892223.839,0.000,-990.234,78.125,913.086,0.000
1743892223.843,0.000,934.082,-44.434,-996.582,0.000
1743892223.847,0.000,920.410,-148.438,887.695,0.000
1743892223.851,0.000,-948.730,-14.160,-883.301,0.000
1743892223.855,0.000,749.512,155.273,653.320,0.000
1743892223.859,0.000,-647.949,149.414,-711.914,0.000
1743892223.863,-1000.000,-1000.000,-110.352,370.605,0.000
1743892223.867,382.812,-785.645,-127.441,-822.266,0.000
1743892223.871,-848.633,738.770,25.391,951.172,0.000
1743892223.874,-324.219,249.512,116.699,-270.996,0.000
1743892223.878,-1000.000,-1000.000,-8.789,5.371,0.000
1743892223.882,3.906,-476.562,-183.594,-892.578,0.000
1743892223.886,-894.043,970.703,-24.414,995.117,0.000
1743892223.890,844.727,959.961,41.992,788.086,0.000
1743892223.894,-719.238,-639.648,-5.859,426.758,0.000
1743892223.898,-979.492,-1000.000,-105.469,841.797,0.000
1743892223.902,765.137,586.914,-86.426,-884.277,0.000
1743892223.906,-994.629,-897.461,39.551,815.918,0.000
1743892223.910,-722.168,-565.430,118.652,-398.926,0.000
1743892223.914,-979.492,-1000.000,-103.027,451.172,0.000
1743892223.917,558.594,522.949,-148.926,-837.402,0.000
1743892223.921,-770.996,-908.691,38.086,883.301,0.000
1743892223.925,512.695,913.086,-14.648,-996.582,0.000
1743892223.929,-717.773,929.199,-116.699,913.574,0.000
1743892223.933,575.684,-983.887,-98.633,-980.957,0.000
1743892223.937,-964.844,872.559,41.504,931.641,0.000
1743892223.941,-624.512,-480.469,162.598,-694.824,0.000
1743892223.945,-1000.000,-1000.000,-39.551,-472.168,0.000
1743892223.949,-282.227,-682.129,-188.477,990.723,0.000
1743892223.953,-958.496,868.164,-62.988,-881.348,0.000
1743892223.956,114.258,416.504,87.402,-157.227,0.000
1743892223.960,-1000.000,-1000.000,8.301,-854.004,0.000
1743892223.964,-587.891,-876.953,-212.891,645.508,0.000
1743892223.968,917.480,713.867,-139.160,-787.598,0.000
1743892223.972,960.449,-983.398,51.758,646.973,0.000
1743892223.976,-738.281,-723.633,138.672,-558.594,0.000
1743892223.980,-925.781,-993.652,-141.602,469.238,0.000
1743892223.984,721.680,642.578,-195.312,-839.355,0.000
1743892223.988,-940.918,-925.293,44.922,880.371,0.000
1743892223.992,898.926,896.484,-40.527,987.305,0.000
1743892223.996,-996.094,994.141,-183.594,971.191,0.000
1743892223.999,911.621,945.801,-92.285,971.680,0.000
1743892224.003,-986.816,954.590,72.266,971.680,0.000
1743892224.007,929.199,-964.355,21.484,977.051,0.000
1743892224.011,-759.766,-182.617,-42.480,937.500,0.000
1743892224.015,-726.074,-1000.000,-59.570,962.891,0.000
1743892224.019,790.527,-889.160,12.695,948.242,0.000
1743892224.023,-498.535,-1000.000,181.641,-497.559,0.000
1743892224.027,-1000.000,-888.184,-13.184,-867.188,0.000
1743892224.031,415.039,488.770,-337.402,694.824,0.000
1743892224.035,-840.332,-863.281,-167.969,-793.945,0.000
1743892224.039,752.441,824.707,81.543,570.801,0.000
1743892224.042,-750.488,-648.438,117.188,-637.695,0.000
1743892224.046,-1000.000,-1000.000,-140.137,409.668,0.000
1743892224.050,713.379,657.715,-212.402,-760.254,0.000
1743892224.054,-988.770,-914.062,51.758,781.738,0.000
1743892224.058,-706.055,-576.172,199.707,-640.625,0.000
1743892224.062,-1000.000,-1000.000,-75.684,2.930,0.000
1743892224.066,591.797,479.980,-296.387,-821.289,0.000
1743892224.070,-852.539,-782.715,-52.734,942.871,0.000
1743892224.074,-382.324,-82.520,141.113,-536.621,0.000
1743892224.078,-1000.000,-1000.000,-26.367,-869.629,0.000
1743892224.081,310.059,208.984,-280.273,842.285,0.000
1743892224.085,-830.078,-769.043,-114.746,-895.508,0.000
1743892224.089,-222.656,59.082,151.367,-485.840,0.000
1743892224.093,-1000.000,-1000.000,53.711,-1000.000,0.000
1743892224.097,-289.551,-236.816,-272.949,598.633,0.000
1743892224.101,-913.574,-874.512,-206.543,-806.641,0.000
1743892224.105,353.027,665.039,111.816,-73.730,0.000
1743892224.109,-1000.000,-934.082,127.930,-1000.000,0.000
1743892224.113,-902.344,-925.781,-179.199,14.648,0.000
1743892224.117,754.883,769.043,-269.043,-813.965,0.000
1743892224.121,848.145,999.512,41.992,520.020,0.000
1743892224.124,-898.438,-712.891,145.996,-997.559,0.000
1743892224.128,-1000.000,-1000.000,-158.203,-836.426,0.000
1743892224.132,678.223,688.965,-370.117,853.027,0.000
1743892224.136,999.512,995.117,-35.156,922.363,0.000
1743892224.140,-661.133,-651.367,221.191,-782.715,0.000
1743892224.144,-1000.000,-1000.000,-50.781,-1000.000,0.000
1743892224.148,402.344,291.016,-351.074,680.664,0.000
1743892224.152,-935.547,-872.559,-109.375,-989.258,0.000
1743892224.156,-481.445,-303.711,246.094,-661.621,0.000
1743892224.160,-1000.000,-1000.000,82.520,-1000.000,0.000
1743892224.164,-174.316,-384.766,-236.816,419.434,0.000
1743892224.167,-913.574,-952.148,-149.414,-889.648,0.000
1743892224.171,140.625,612.793,175.781,-318.848,0.000
1743892224.175,-1000.000,-974.609,161.133,-1000.000,0.000
1743892224.179,-879.395,-997.070,-135.742,-594.727,0.000
1743892224.183,744.141,693.359,-225.586,926.758,0.000
1743892224.187,807.129,900.879,95.215,327.637,0.000
1743892224.191,-936.523,-845.215,229.980,-1000.000,0.000
1743892224.195,-1000.000,-1000.000,-79.590,-922.852,0.000
1743892224.199,673.340,644.531,-290.039,672.363,0.000
1743892224.203,-994.629,-986.816,5.371,950.195,0.000
1743892224.206,-675.293,-670.410,277.344,-792.969,0.000
1743892224.210,-1000.000,-1000.000,40.039,-1000.000,0.000
1743892224.214,457.520,419.434,-270.996,652.344,0.000
1743892224.218,-906.250,-855.469,-84.961,-998.535,0.000
1743892224.222,-397.949,-224.609,257.324,-630.371,0.000
1743892224.226,-1000.000,-1000.000,132.812,-1000.000,0.000
1743892224.230,-331.055,-545.898,-170.410,201.660,0.000
1743892224.234,-943.848,987.793,-128.906,-883.301,0.000
1743892224.238,370.117,656.250,186.035,-218.262,0.000
1743892224.242,-1000.000,-979.004,224.609,-1000.000,0.000
1743892224.246,-922.363,-987.305,-52.734,-688.477,0.000
1743892224.249,694.336,663.086,-209.961,883.789,0.000
1743892224.253,969.727,-979.492,67.383,645.020,0.000
1743892224.257,-773.438,-703.613,266.113,-1000.000,0.000
1743892224.261,-1000.000,-1000.000,-37.109,-966.797,0.000
1743892224.265,676.758,616.699,-319.336,675.781,0.000
1743892224.269,-977.539,-909.180,-46.875,-984.375,0.000
1743892224.273,-651.855,-541.016,256.836,-718.262,0.000
1743892224.277,-1000.000,-1000.000,52.246,-1000.000,0.000
1743892224.281,397.461,348.145,-265.625,627.930,0.000
1743892224.285,-821.289,-796.875,-121.582,-875.977,0.000
1743892224.288,-47.852,295.410,185.059,-442.383,0.000
1743892224.292,-1000.000,-1000.000,107.422,-1000.000,0.000
1743892224.296,-465.820,-656.738,-213.379,288.086,0.000
1743892224.300,984.863,930.176,-196.777,-791.016,0.000
1743892224.304,896.973,963.867,105.957,610.840,0.000
1743892224.308,-743.164,-694.336,205.566,-923.828,0.000
1743892224.312,-1000.000,-1000.000,-124.023,-349.121,0.000
1743892224.316,685.547,663.086,-307.617,-897.461,0.000
1743892224.320,-979.004,-928.711,11.230,906.250,0.000
1743892224.324,-678.223,-557.129,256.836,-716.797,0.000
1743892224.328,-1000.000,-1000.000,-6.348,-863.281,0.000
1743892224.331,450.684,305.664,-293.945,784.668,0.000
1743892224.335,-794.922,-795.898,-53.223,-832.031,0.000
1743892224.339,191.406,458.496,186.035,-253.906,0.000
1743892224.343,-1000.000,-1000.000,75.684,-960.449,0.000
1743892224.347,-294.434,-679.688,-214.844,547.363,0.000
1743892224.351,-935.547,931.641,-134.766,-789.551,0.000
1743892224.355,910.156,990.723,88.867,718.750,0.000
1743892224.359,-692.383,-661.133,151.367,-512.207,0.000
1743892224.363,-961.426,-1000.000,-122.070,422.852,0.000
1743892224.367,691.406,643.066,-226.074,-831.543,0.000
1743892224.371,-935.059,-923.828,50.781,880.371,0.000
1743892224.374,897.461,896.484,21.973,986.816,0.000
1743892224.378,-996.094,-996.582,-158.691,970.703,0.000
1743892224.382,907.227,914.062,-102.051,972.168,0.000
1743892224.386,-972.656,-991.211,82.031,971.191,0.000
1743892224.390,843.262,919.434,57.129,956.543,0.000
1743892224.394,-761.719,-618.652,-22.461,965.332,0.000
1743892224.398,-908.691,-1000.000,-97.656,974.121,0.000
1743892224.402,835.938,629.883,-81.543,970.215,0.000
1743892224.406,981.445,-989.746,-21.973,971.680,0.000
1743892224.410,-700.684,-610.352,-27.344,988.281,0.000
1743892224.413,-1000.000,-1000.000,-115.234,890.625,0.000
1743892224.417,614.258,-937.012,-100.098,-895.020,0.000
1743892224.421,349.121,-974.609,89.355,721.680,0.000
1743892224.425,-1000.000,-1000.000,89.844,-585.449,0.000
1743892224.429,-865.234,-1000.000,-206.055,467.285,0.000
1743892224.433,502.441,347.168,-220.703,-838.379,0.000
1743892224.437,-799.316,-890.625,3.418,879.883,0.000
1743892224.441,716.797,900.391,15.625,987.305,0.000
1743892224.445,-494.629,996.094,-117.676,975.098,0.000
1743892224.449,384.766,898.926,-149.414,958.008,0.000
1743892224.453,-735.840,-916.992,22.461,-995.605,0.000
1743892224.456,304.199,598.145,79.102,878.418,0.000
1743892224.460,-1000.000,-862.305,-24.902,818.359,0.000
1743892224.464,-919.434,-1000.000,-148.926,909.180,0.000
1743892224.468,519.043,-953.613,-22.461,-897.461,0.000
1743892224.472,-255.859,-970.215,130.371,737.305,0.000
1743892224.476,-1000.000,-1000.000,10.742,-326.660,0.000
1743892224.480,-783.691,-969.727,-200.684,647.949,0.000
1743892224.484,482.422,429.688,-176.270,-875.488,0.000
1743892224.488,-769.043,-895.996,7.324,889.648,0.000
1743892224.492,593.750,899.902,-6.836,989.258,0.000
1743892224.496,-591.309,980.957,-133.789,971.680,0.000
1743892224.499,496.094,917.480,-103.516,971.680,0.000
1743892224.503,-792.969,-914.062,76.172,971.680,0.000
1743892224.507,-131.348,197.266,72.266,971.191,0.000
1743892224.511,-1000.000,-1000.000,-20.020,971.191,0.000
1743892224.515,-614.746,-993.652,-75.195,971.191,0.000
1743892224.519,628.418,-987.305,46.875,971.191,0.000
1743892224.523,-444.824,-950.195,90.332,971.191,0.000
1743892224.527,-1000.000,-1000.000,-70.801,971.191,0.000
1743892224.531,-581.055,-873.047,-175.781,971.191,0.000
1743892224.535,686.035,521.484,-76.660,971.191,0.000
1743892224.538,-822.754,-873.535,55.664,971.191,0.000
1743892224.542,611.816,837.891,-46.387,985.840,0.000
1743892224.546,-777.832,-496.094,-80.566,903.320,0.000
1743892224.550,433.105,-1000.000,-18.555,-932.129,0.000
1743892224.554,685.547,-907.227,82.031,851.562,0.000
1743892224.558,-1000.000,-985.352,103.027,-410.156,0.000
1743892224.562,-936.035,-1000.000,-180.664,441.406,0.000
1743892224.566,0.000,51.270,-223.633,-835.449,0.000
1743892224.570,0.000,-925.781,-11.230,882.812,0.000
1743892224.574,0.000,927.734,21.484,987.305,0.000
1743892224.578,0.000,970.215,-125.488,971.191,0.000
1743892224.581,0.000,942.383,-131.348,971.191,0.000
1743892224.585,0.000,964.844,67.383,971.191,0.000
1743892224.589,0.000,-979.492,84.961,974.121,0.000
1743892224.593,0.000,-276.367,-8.789,964.355,0.000
1743892224.597,0.000,-1000.000,-94.727,908.203,0.000
1743892224.601,0.000,-951.172,-45.410,-864.258,0.000
1743892224.605,0.000,-946.289,153.320,60.059,0.000
1743892224.609,0.000,-1000.000,55.664,-934.570,0.000
1743892224.613,578.125,-948.242,-237.305,516.602,0.000
1743892224.617,-918.945,605.469,-208.008,-809.082,0.000
1743892224.620,895.996,-961.426,65.430,800.781,0.000
1743892224.624,-998.535,-687.012,204.102,-653.809,0.000
1743892224.628,914.062,-1000.000,-78.613,-88.379,0.000
1743892224.632,-994.629,563.477,-237.305,-814.453,0.000
1743892224.636,935.059,-891.113,0.488,898.438,0.000
1743892224.640,-658.691,-415.527,197.754,-654.785,0.000
1743892224.644,-1000.000,-1000.000,5.859,-807.617,0.000
1743892224.648,708.984,-26.855,-251.465,837.402,0.000
1743892224.652,36.621,-843.262,-66.406,-843.262,0.000
1743892224.656,-1000.000,398.438,145.020,-240.723,0.000
1743892224.660,-827.637,-1000.000,62.500,-968.750,0.000
1743892224.663,677.246,-627.441,-208.008,538.574,0.000
1743892224.667,-975.586,981.934,-137.207,-744.629,0.000
1743892224.671,-709.961,864.258,90.820,381.348,0.000
1743892224.675,-1000.000,-821.289,102.539,-859.863,0.000
1743892224.679,656.738,-976.562,-189.453,305.176,0.000
1743892224.683,-912.598,747.559,-243.652,-778.809,0.000
1743892224.687,-552.734,-993.164,45.898,776.855,0.000
1743892224.691,-1000.000,-703.125,185.059,-758.789,0.000
1743892224.695,400.879,-1000.000,-83.496,-527.832,0.000
1743892224.699,-783.203,624.023,-305.176,-936.523,0.000
1743892224.703,130.859,-908.203,-27.344,921.875,0.000
1743892224.706,-667.969,-553.223,236.328,-694.336,0.000
1743892224.710,-1000.000,-1000.000,-9.766,-998.535,0.000
1743892224.714,574.707,410.156,-312.500,693.848,0.000
1743892224.718,-897.461,-795.410,-81.543,-994.141,0.000
1743892224.722,-267.578,12.207,202.148,-577.148,0.000
1743892224.726,-1000.000,-1000.000,67.871,-1000.000,0.000
1743892224.730,124.023,-41.504,-285.156,560.547,0.000
1743892224.734,-801.270,-810.059,-214.844,-814.941,0.000
1743892224.738,315.918,483.398,137.207,-89.844,0.000
1743892224.742,-1000.000,-1000.000,148.926,-1000.000,0.000
1743892224.745,-759.277,-860.352,-171.387,-127.441,0.000
1743892224.749,876.953,797.852,-243.652,-858.398,0.000
1743892224.753,912.109,998.535,50.293,647.461,0.000
1743892224.757,-788.086,-705.566,187.500,-939.453,0.000
1743892224.761,-1000.000,-1000.000,-76.660,-874.023,0.000
1743892224.765,679.688,669.922,-303.223,829.590,0.000
1743892224.769,-987.793,-947.266,1.465,966.309,0.000
1743892224.773,-690.918,-644.043,269.043,-736.816,0.000
1743892224.777,-1000.000,-1000.000,-6.348,-1000.000,0.000
1743892224.781,543.945,541.504,-365.723,681.152,0.000
1743892224.785,-917.480,-847.656,-140.625,-986.328,0.000
1743892224.788,-417.969,-201.172,222.168,-630.859,0.000
1743892224.792,-1000.000,-1000.000,101.562,-1000.000,0.000
1743892224.796,-288.086,-363.281,-252.930,288.086,0.000
1743892224.800,-930.664,-937.500,-217.773,-845.703,0.000
1743892224.804,314.453,653.320,126.465,-155.762,0.000
1743892224.808,-1000.000,-986.328,155.273,-1000.000,0.000
1743892224.812,-818.848,-865.723,-126.953,-463.867,0.000
1743892224.816,802.734,815.918,-231.934,-984.375,0.000
1743892224.820,939.453,994.141,52.734,686.523,0.000
1743892224.824,-780.762,-708.008,224.121,-946.289,0.000
1743892224.827,-1000.000,-1000.000,-43.457,-964.844,0.000
1743892224.831,682.617,650.391,-291.992,711.914,0.000
1743892224.835,-997.559,-895.508,-41.016,-997.070,0.000
1743892224.839,-672.363,-479.492,254.883,-716.309,0.000
1743892224.843,-1000.000,-1000.000,52.734,-1000.000,0.000
1743892224.847,396.484,294.434,-295.898,636.719,0.000
1743892224.851,-853.027,-801.758,-144.043,-947.754,0.000
1743892224.855,-229.980,168.945,221.191,-553.711,0.000
1743892224.859,-1000.000,-1000.000,148.438,-1000.000,0.000
1743892224.863,-423.340,-672.363,-169.434,172.852,0.000
1743892224.867,-966.309,924.805,-156.250,-840.332,0.000
1743892224.870,656.738,894.531,137.207,136.230,0.000
1743892224.874,-976.074,-790.527,178.711,-1000.000,0.000
1743892224.878,-925.781,-1000.000,-97.656,-601.074,0.000
1743892224.882,745.605,685.547,-244.141,958.984,0.000
1743892224.886,-993.164,-985.840,24.414,861.816,0.000
1743892224.890,-707.031,-695.312,231.934,-812.988,0.000
1743892224.894,-1000.000,-1000.000,0.000,-1000.000,0.000
1743892224.898,663.574,565.918,0.000,704.590,0.000
1743892224.902,-952.148,-892.578,0.000,-987.793,0.000
1743892224.906,-581.055,-480.957,0.000,-700.684,0.000
1743892224.910,-1000.000,-1000.000,0.000,-1000.000,0.000
1743892224.913,297.363,241.699,0.000,584.961,0.000
1743892224.917,-822.754,-800.293,0.000,-894.531,0.000
1743892224.921,-17.090,234.863,0.000,-406.738,0.000
1743892224.925,-1000.000,-1000.000,0.000,-1000.000,0.000
1743892224.929,-648.926,-861.816,0.000,-30.762,0.000
1743892224.933,937.988,783.691,0.000,-854.980,0.000
1743892224.937,761.719,898.926,0.000,308.105,0.000
1743892224.941,-927.246,-838.379,157.715,-1000.000,0.000
1743892224.945,-991.211,-1000.000,-115.723,-741.211,0.000
1743892224.949,688.477,677.246,-295.898,899.414,0.000
1743892224.952,-989.746,-984.863,3.418,852.051,0.000
1743892224.956,-705.078,-694.824,254.883,-847.168,0.000
1743892224.960,-1000.000,-1000.000,15.137,-1000.000,0.000
1743892224.964,636.230,587.402,-319.824,681.641,0.000
1743892224.968,-999.023,-959.961,-74.707,998.535,0.000
1743892224.972,-573.730,-479.980,234.863,-658.203,0.000
1743892224.976,-1000.000,-1000.000,19.531,-1000.000,0.000
1743892224.980,-146.973,-419.434,-236.816,372.559,0.000
1743892224.984,-934.082,-981.445,-166.992,-928.223,0.000
1743892224.988,-48.828,350.098,144.531,-419.922,0.000
1743892224.992,-1000.000,-1000.000,108.887,-1000.000,0.000
1743892224.995,-784.180,-882.324,-182.129,-449.219,0.000
1743892224.999,816.895,752.930,-216.309,992.188,0.000
1743892225.003,734.375,900.879,57.129,259.277,0.000
1743892225.007,-974.121,-843.750,174.805,-1000.000,0.000
1743892225.011,-991.699,-1000.000,-80.078,-904.297,0.000
1743892225.015,675.293,687.012,-303.711,712.402,0.000
1743892225.019,983.887,981.445,-13.184,864.746,0.000
1743892225.023,-658.691,-627.930,220.703,-858.887,0.000
1743892225.027,-1000.000,-1000.000,-18.066,-1000.000,0.000
1743892225.031,334.961,132.812,-291.992,585.938,0.000
1743892225.035,993.652,-958.008,-104.492,978.516,0.000
1743892225.038,-541.992,-381.348,229.492,-612.793,0.000
1743892225.042,-1000.000,-1000.000,79.590,-1000.000,0.000
1743892225.046,-527.344,-660.645,-205.566,-61.035,0.000
1743892225.050,938.965,901.367,-207.520,959.473,0.000
1743892225.054,148.438,567.871,117.188,-396.484,0.000
1743892225.058,-1000.000,-1000.000,149.414,-1000.000,0.000
1743892225.062,-893.066,-969.727,-163.086,-680.664,0.000
1743892225.066,711.426,715.332,-309.570,822.266,0.000
1743892225.070,775.879,813.965,11.719,155.762,0.000
1743892225.074,-952.637,-898.438,172.852,-1000.000,0.000
1743892225.077,-1000.000,-1000.000,-91.797,-909.668,0.000
1743892225.081,644.043,535.156,-311.523,657.715,0.000
1743892225.085,999.512,-977.051,-74.707,893.555,0.000
1743892225.089,-656.250,-615.723,224.609,-834.961,0.000
1743892225.093,-1000.000,-1000.000,9.277,-1000.000,0.000
1743892225.097,310.547,143.555,-329.590,555.176,0.000
1743892225.101,-865.723,-817.383,-171.387,-995.605,0.000
1743892225.105,-246.582,346.191,144.043,-608.398,0.000
1743892225.109,-1000.000,-1000.000,65.430,-1000.000,0.000
1743892225.113,-482.422,-709.473,-203.613,45.898,0.000
1743892225.117,-987.793,953.613,-222.656,-898.926,0.000
1743892225.120,492.188,807.129,81.543,-141.602,0.000
1743892225.124,-1000.000,-896.484,138.184,-1000.000,0.000
1743892225.128,-889.648,-966.309,-140.137,-617.188,0.000
1743892225.132,748.535,733.398,-264.160,929.199,0.000
1743892225.136,981.934,-988.770,31.250,748.535,0.000
1743892225.140,-744.629,-719.727,198.730,-934.570,0.000
1743892225.144,-1000.000,-1000.000,-72.754,-975.098,0.000
1743892225.148,662.598,600.586,-272.461,702.148,0.000
1743892225.152,-933.594,-801.270,-35.156,-985.352,0.000
1743892225.156,-562.500,-95.703,200.195,-710.449,0.000
1743892225.160,-1000.000,-1000.000,70.312,-1000.000,0.000
1743892225.163,343.750,198.242,-231.445,616.699,0.000
1743892225.167,-806.152,-767.578,-140.137,-862.793,0.000
1743892225.171,14.648,490.234,155.273,-409.668,0.000
1743892225.175,-1000.000,-1000.000,125.488,-1000.000,0.000
1743892225.179,-377.441,-554.688,-196.289,276.855,0.000
1743892225.183,-953.125,-989.258,-192.871,-789.062,0.000
1743892225.187,815.918,938.477,106.934,504.395,0.000
1743892225.191,-835.449,-705.566,203.613,-1000.000,0.000
1743892225.195,-946.777,-980.957,-61.035,-516.113,0.000
1743892225.199,778.320,769.043,-239.746,-965.332,0.000
1743892225.202,-999.023,-991.699,30.273,900.391,0.000
1743892225.206,-710.449,-682.617,260.742,-728.516,0.000
1743892225.210,-1000.000,-1000.000,16.602,-1000.000,0.000
1743892225.214,614.746,489.746,-274.902,708.496,0.000
1743892225.218,-847.656,-794.434,-47.363,-939.453,0.000
1743892225.222,-368.652,-0.977,261.719,-635.254,0.000
1743892225.226,-1000.000,-1000.000,117.676,-1000.000,0.000
1743892225.230,260.742,-37.109,-224.121,575.684,0.000
1743892225.234,-773.438,-817.383,-125.488,-794.922,0.000
1743892225.238,451.172,712.891,147.461,-109.863,0.000
1743892225.242,-1000.000,-890.137,152.344,-1000.000,0.000
1743892225.245,-312.012,-386.719,-152.344,248.535,0.000
1743892225.249,-880.859,-887.695,-218.262,-781.738,0.000
1743892225.253,816.406,870.117,76.660,554.199,0.000
1743892225.257,-771.973,-702.148,163.086,-966.309,0.000
1743892225.261,-1000.000,-1000.000,-96.191,-737.305,0.000
1743892225.265,712.402,676.758,-281.250,928.711,0.000
1743892225.269,-986.816,-971.191,-0.488,945.801,0.000
1743892225.273,-711.914,-657.227,238.770,-720.703,0.000
1743892225.277,-1000.000,-1000.000,24.902,-1000.000,0.000
1743892225.281,613.770,430.664,-290.039,689.453,0.000
1743892225.284,-867.676,-812.988,-84.961,-994.141,0.000
1743892225.288,-320.801,32.715,253.418,-653.320,0.000
1743892225.292,-1000.000,-1000.000,131.836,-1000.000,0.000
1743892225.296,3.418,-447.754,-172.363,394.043,0.000
1743892225.300,-839.844,-946.777,-140.137,-934.570,0.000
1743892225.304,256.348,313.965,150.391,-415.527,0.000
1743892225.308,-1000.000,-1000.000,148.926,-1000.000,0.000
1743892225.312,-852.539,-929.688,-103.516,-631.348,0.000
1743892225.316,746.582,637.695,-200.684,861.328,0.000
1743892225.320,-982.910,-954.590,49.805,101.074,0.000
1743892225.324,-710.938,-692.871,209.961,-1000.000,0.000
1743892225.327,-978.516,-997.070,-13.672,-908.203,0.000
1743892225.331,571.777,559.570,-242.188,683.105,0.000
1743892225.335,-825.195,-876.953,-26.855,745.605,0.000
1743892225.339,653.809,855.469,129.883,-875.977,0.000
1743892225.343,-854.004,-696.289,43.457,-1000.000,0.000
1743892225.347,-225.586,-598.145,-174.805,177.246,0.000
1743892225.351,-892.578,955.566,-123.535,899.902,0.000
1743892225.355,990.723,-873.535,139.648,-594.238,0.000
1743892225.359,-520.996,-253.906,160.156,-1000.000,0.000
1743892225.363,-851.562,-942.871,6.836,-558.105,0.000
1743892225.367,740.723,594.727,-106.934,652.344,0.000
1743892225.370,-788.574,-796.875,91.309,-441.895,0.000
1743892225.374,335.449,718.262,127.930,-1000.000,0.000
1743892225.378,-770.020,-484.375,4.883,-825.195,0.000
1743892225.382,450.195,430.176,-165.039,630.859,0.000
1743892225.386,-734.375,-834.473,44.922,101.074,0.000
1743892225.390,635.742,959.473,111.328,-1000.000,0.000
1743892225.394,-666.016,74.219,-50.781,-953.613,0.000
1743892225.398,252.930,225.098,-208.984,584.473,0.000
1743892225.402,-697.754,-833.496,-90.820,824.707,0.000
1743892225.406,504.395,937.988,106.934,-868.164,0.000
1743892225.409,-938.965,-525.879,58.594,-1000.000,0.000
1743892225.413,0.977,-241.699,-169.434,410.156,0.000
1743892225.417,-755.859,-812.500,-142.578,994.629,0.000
1743892225.421,118.652,833.984,114.746,-620.117,0.000
1743892225.425,-1000.000,-781.738,70.801,-1000.000,0.000
1743892225.429,-490.234,-656.738,-173.828,-18.555,0.000
1743892225.433,-950.195,-969.727,-200.684,-900.391,0.000
1743892225.437,607.910,893.555,32.227,-46.387,0.000
1743892225.441,-991.211,-744.141,108.887,-1000.000,0.000
1743892225.445,-942.871,-1000.000,-114.258,-687.012,0.000
1743892225.449,715.332,689.941,-253.906,884.277,0.000
1743892225.452,-992.676,-981.934,-8.301,828.125,0.000
1743892225.456,-722.168,-714.355,199.707,-880.859,0.000
1743892225.460,-1000.000,-1000.000,-20.996,-1000.000,0.000
1743892225.464,640.625,568.359,-277.832,692.383,0.000
1743892225.468,-874.512,-790.039,-102.051,-983.887,0.000
1743892225.472,-455.078,-142.090,179.688,-709.473,0.000
1743892225.476,-1000.000,-1000.000,73.730,-1000.000,0.000
1743892225.480,359.863,318.359,-287.598,604.492,0.000
1743892225.484,-793.945,-776.367,-197.754,-867.188,0.000
1743892225.488,266.602,521.973,110.840,-348.145,0.000
1743892225.492,-1000.000,-995.117,86.914,-1000.000,0.000
1743892225.495,-566.406,-724.121,-144.043,32.227,0.000
1743892225.499,-993.652,944.336,-216.797,-833.008,0.000
1743892225.503,832.520,922.363,24.902,436.035,0.000
1743892225.507,-823.242,-746.094,151.855,-1000.000,0.000
1743892225.511,-1000.000,-1000.000,-58.594,-774.414,0.000
1743892225.515,689.941,678.711,-244.629,879.883,0.000
1743892225.519,-990.234,-979.492,-42.969,928.711,0.000
1743892225.523,-688.477,-644.043,193.359,-762.695,0.000
1743892225.527,-1000.000,-1000.000,-68.359,-1000.000,0.000
1743892225.531,558.105,445.801,-410.156,687.012,0.000
1743892225.534,-959.473,-944.824,-135.742,991.699,0.000
1743892225.538,-492.188,-447.754,215.332,-646.484,0.000
1743892225.542,-1000.000,-1000.000,3.418,-1000.000,0.000
1743892225.546,-319.336,-610.352,-313.477,265.137,0.000
1743892225.550,0.000,929.688,-214.844,-925.293,0.000
1743892225.554,0.000,418.945,120.605,-364.746,0.000
1743892225.558,0.000,-1000.000,99.609,-1000.000,0.000
1743892225.562,0.000,-938.965,-202.148,-607.910,0.000
1743892225.566,0.000,649.414,-260.254,912.109,0.000
1743892225.570,0.000,-985.352,39.062,323.730,0.000
1743892225.574,0.000,-674.805,167.969,-1000.000,0.000
1743892225.577,0.000,-1000.000,-76.660,-938.965,0.000
1743892225.581,0.000,521.973,-300.781,692.383,0.000
1743892225.585,0.000,987.305,-45.898,791.504,0.000
1743892225.589,0.000,-607.910,221.191,-897.461,0.000
1743892225.593,0.000,-1000.000,10.742,-1000.000,0.000
1743892225.597,-962.402,-82.520,-246.094,476.562,0.000
1743892225.601,172.363,989.258,-113.770,966.797,0.000
1743892225.605,-1000.000,-353.027,208.984,-594.238,0.000
1743892225.609,-874.023,-1000.000,86.426,-1000.000,0.000
1743892225.613,721.680,-803.223,-165.527,-357.422,0.000
1743892225.616,903.320,713.867,-156.250,829.102,0.000
1743892225.620,-832.031,931.641,129.395,-396.484,0.000
1743892225.624,-1000.000,-812.012,134.277,-1000.000,0.000
1743892225.628,658.691,-1000.000,-137.207,-812.012,0.000
1743892225.632,979.004,668.945,-266.113,666.992,0.000
1743892225.636,-643.066,992.188,26.367,149.902,0.000
1743892225.640,-1000.000,-663.086,196.777,-1000.000,0.000
1743892225.644,194.336,-1000.000,-59.082,-937.500,0.000
1743892225.648,-989.258,303.223,-293.457,625.488,0.000
1743892225.652,-463.867,-843.750,-83.008,824.219,0.000
1743892225.656,-1000.000,-280.762,177.246,-849.609,0.000
1743892225.659,-705.078,-1000.000,27.344,-1000.000,0.000
1743892225.663,850.098,-145.996,-219.238,342.773,0.000
1743892225.667,640.137,-879.395,-119.141,960.938,0.000
1743892225.671,-1000.000,672.363,132.812,-575.684,0.000
1743892225.675,-978.516,-914.551,88.867,-1000.000,0.000
1743892225.679,666.992,-950.684,-154.785,-535.156,0.000
1743892225.683,990.234,714.355,-200.684,775.391,0.000
1743892225.687,-703.613,-930.176,85.449,-300.293,0.000
1743892225.691,-724.609,-625.488,154.785,-1000.000,0.000
1743892225.695,-1000.000,-987.305,-110.352,-845.215,0.000
1743892225.699,648.926,567.871,-260.742,673.828,0.000
1743892225.702,-895.020,-810.547,-19.043,421.387,0.000
1743892225.706,-541.992,728.027,130.371,-1000.000,0.000
1743892225.710,-1000.000,-518.066,15.137,-944.824,0.000
1743892225.714,558.105,325.684,-221.191,644.531,0.000
1743892225.718,-860.352,-765.625,-83.008,970.215,0.000
1743892225.722,-284.180,809.082,124.512,-692.871,0.000
1743892225.726,-1000.000,-700.684,28.320,-1000.000,0.000
1743892225.730,-84.961,-383.301,-166.992,353.516,0.000
1743892225.734,-921.387,-815.430,-104.492,-997.070,0.000
1743892225.738,-151.367,611.328,167.480,-564.453,0.000
1743892225.741,-1000.000,-1000.000,111.816,-1000.000,0.000
1743892225.745,-648.438,-650.391,-115.723,-221.680,0.000
1743892225.749,918.457,908.203,-164.551,-936.523,0.000
1743892225.753,743.652,-988.281,62.012,126.953,0.000
1743892225.757,-973.633,929.688,121.094,-1000.000,0.000
1743892225.761,-878.906,929.688,-93.750,-609.375,0.000
1743892225.765,816.895,-986.328,-190.430,960.449,0.000
1743892225.769,967.285,903.809,19.043,768.555,0.000
1743892225.773,-703.125,-600.098,201.172,-898.926,0.000
1743892225.777,-1000.000,-1000.000,15.625,-1000.000,0.000
1743892225.781,557.617,450.684,-247.559,677.246,0.000
1743892225.784,-991.699,-901.855,-61.523,998.047,0.000
1743892225.788,-563.477,-372.070,217.773,-663.086,0.000
1743892225.792,-1000.000,-1000.000,83.984,-1000.000,0.000
1743892225.796,-212.891,-463.379,-189.941,384.277,0.000
1743892225.800,-937.988,-999.512,-147.949,-924.805,0.000
1743892225.804,73.242,717.773,172.852,-425.781,0.000
1743892225.808,-1000.000,-939.453,174.805,-1000.000,0.000
1743892225.812,-806.152,-959.961,-112.305,-354.004,0.000
1743892225.816,816.895,782.227,-214.355,-970.215,0.000
1743892225.820,727.051,833.008,21.484,230.957,0.000
1743892225.823,-979.492,-905.762,165.527,-1000.000,0.000
1743892225.827,-989.258,-1000.000,-40.527,-850.586,0.000
1743892225.831,669.434,682.129,-258.301,758.789,0.000
1743892225.835,-996.582,988.281,-12.207,898.438,0.000
1743892225.839,-667.969,-645.020,208.008,-835.938,0.000
1743892225.843,-1000.000,-1000.000,-21.973,-1000.000,0.000
1743892225.847,420.898,188.965,-230.957,672.852,0.000
1743892225.851,-911.621,-854.980,-51.270,994.141,0.000
1743892225.855,-406.250,-126.953,180.176,-649.414,0.000
1743892225.859,-1000.000,-1000.000,63.965,-1000.000,0.000
1743892225.863,-327.148,-595.215,-192.871,274.902,0.000
1743892225.866,-957.520,970.703,-174.805,-905.762,0.000
1743892225.870,218.750,544.434,131.348,-334.473,0.000
1743892225.874,-1000.000,-1000.000,151.367,-1000.000,0.000
1743892225.878,-840.332,-928.223,-101.562,-517.090,0.000
1743892225.882,776.855,704.590,-181.641,979.004,0.000
1743892225.886,883.789,-997.070,43.457,517.578,0.000
1743892225.890,-854.492,-735.352,168.457,-1000.000,0.000
1743892225.894,-1000.000,-1000.000,-62.500,-923.340,0.000
1743892225.898,682.129,634.766,-268.555,704.102,0.000
1743892225.902,991.699,-875.488,-58.594,-993.164,0.000
1743892225.906,-629.883,-299.805,150.879,-718.262,0.000
1743892225.909,-1000.000,-1000.000,-78.613,-1000.000,0.000
1743892225.913,167.969,-183.105,-371.094,648.438,0.000
1743892225.917,-895.508,-927.734,-214.844,-935.547,0.000
1743892225.921,-265.137,-38.086,117.188,-578.613,0.000
1743892225.925,-1000.000,-1000.000,15.625,-1000.000,0.000
1743892225.929,-518.066,-722.656,-313.965,340.332,0.000
1743892225.933,965.820,822.266,-222.656,-796.875,0.000
1743892225.937,772.949,951.172,67.383,245.605,0.000
1743892225.941,-922.363,-761.230,104.980,-1000.000,0.000
1743892225.945,-921.387,-1000.000,-198.242,-320.801,0.000
1743892225.948,773.926,683.594,-301.270,-911.621,0.000
1743892225.952,-998.535,-985.352,49.805,826.172,0.000
1743892225.956,-710.449,-697.754,208.008,-798.340,0.000
1743892225.960,-1000.000,-1000.000,-29.785,-932.617,0.000
1743892225.964,644.043,554.199,-234.863,798.340,0.000
1743892225.968,-880.859,-872.070,-8.789,-994.629,0.000
1743892225.972,-482.422,-375.000,271.973,-702.637,0.000
1743892225.976,-1000.000,-1000.000,89.844,-1000.000,0.000
1743892225.980,384.277,4.883,-204.102,619.629,0.000
1743892225.984,-792.969,-835.938,-67.871,-828.613,0.000
1743892225.988,220.703,336.426,207.031,-313.965,0.000
1743892225.991,-1000.000,-1000.000,176.270,-1000.000,0.000
1743892225.995,-485.352,-710.449,-165.039,352.539,0.000
1743892225.999,-957.520,949.707,-177.734,-783.691,0.000
1743892226.003,771.484,799.805,82.520,457.520,0.000
1743892226.007,-865.234,-844.238,106.445,-1000.000,0.000
1743892226.011,-1000.000,-1000.000,-196.777,-504.395,0.000
1743892226.015,674.805,512.695,-330.078,-971.191,0.000
1743892226.019,0.000,-991.699,-0.977,917.969,0.000
1743892226.023,0.000,-651.367,213.379,-718.262,0.000
1743892226.027,0.000,-1000.000,-67.383,-976.562,0.000
1743892226.031,0.000,263.672,-321.289,746.582,0.000
1743892226.034,0.000,-852.051,-68.848,-945.312,0.000
1743892226.038,0.000,-165.039,231.934,-628.418,0.000
1743892226.042,0.000,-1000.000,56.152,-1000.000,0.000
1743892226.046,0.000,-599.609,-306.641,597.656,0.000
1743892226.050,0.000,945.801,-152.832,-833.008,0.000
1743892226.054,0.000,307.617,172.363,-261.230,0.000
1743892226.058,0.000,-1000.000,127.930,-1000.000,0.000
1743892226.062,0.000,-840.332,-209.473,131.836,0.000
1743892226.066,-988.281,760.742,-211.914,-804.199,0.000
1743892226.070,-693.848,949.219,109.863,528.320,0.000
1743892226.073,-1000.000,-787.598,221.680,-1000.000,0.000
1743892226.077,521.973,-1000.000,-91.309,-674.805,0.000
1743892226.081,-862.305,658.203,-299.316,953.125,0.000
1743892226.085,-327.148,-924.316,22.949,950.684,0.000
1743892226.089,-1000.000,-517.578,269.531,-708.496,0.000
1743892226.093,-91.797,-1000.000,-37.109,-1000.000,0.000
1743892226.097,-870.117,252.441,-358.398,678.711,0.000
1743892226.101,215.332,-828.125,-106.445,-910.645,0.000
1743892226.105,-1000.000,-34.668,210.449,-574.707,0.000
1743892226.109,-642.578,-1000.000,65.430,-1000.000,0.000
1743892226.113,-221.191,-714.355,-279.297,529.297,0.000
1743892226.116,-895.020,891.113,-167.969,-796.875,0.000
1743892226.120,596.191,770.508,128.906,29.785,0.000
1743892226.124,-999.512,-937.012,156.250,-1000.000,0.000
1743892226.128,-839.844,-992.676,-183.105,-36.133,0.000
1743892226.132,831.543,685.059,-259.277,-834.961,0.000
1743892226.136,976.074,-993.652,92.773,713.379,0.000
1743892226.140,-720.215,-676.270,223.633,-879.395,0.000
1743892226.144,-1000.000,-1000.000,-108.887,-833.008,0.000
1743892226.148,679.199,514.648,-339.844,878.906,0.000
1743892226.152,-979.492,-978.027,7.324,976.562,0.000
1743892226.155,-666.504,-574.707,281.250,-708.984,0.000
1743892226.159,-1000.000,-1000.000,2.441,-1000.000,0.000
1743892226.163,442.871,-40.527,-277.832,654.297,0.000
1743892226.167,-819.824,-880.859,-71.777,-892.090,0.000
1743892226.171,-188.965,-61.035,214.355,-533.691,0.000
1743892226.175,-1000.000,-1000.000,106.445,-1000.000,0.000
1743892226.179,-60.547,-279.785,-241.211,479.980,0.000
1743892226.183,-852.051,-916.504,-144.043,-791.992,0.000
1743892226.187,670.410,742.676,134.766,211.914,0.000
1743892226.191,-912.598,-861.328,147.949,-1000.000,0.000
1743892226.195,-917.969,-1000.000,-173.828,-259.766,0.000
1743892226.198,780.273,672.852,-274.414,-901.855,0.000
1743892226.202,-999.512,-982.422,84.961,843.262,0.000
1743892226.206,-708.496,-703.613,244.629,-779.785,0.000
1743892226.210,-1000.000,-1000.000,-97.168,-896.973,0.000
1743892226.214,653.320,593.262,-327.148,845.215,0.000
1743892226.218,-903.809,-871.582,-12.207,990.234,0.000
1743892226.222,-552.734,-472.168,253.418,-708.984,0.000
1743892226.226,-1000.000,-1000.000,-22.949,-1000.000,0.000
1743892226.230,456.055,367.188,-371.582,621.582,0.000
1743892226.234,-806.641,-798.340,-126.465,-832.520,0.000
1743892226.238,172.852,267.578,189.941,-334.961,0.000
1743892226.241,-1000.000,-1000.000,120.117,-1000.000,0.000
1743892226.245,-583.496,-817.383,-255.371,367.188,0.000
1743892226.249,972.168,816.895,-228.027,-781.250,0.000
1743892226.253,0.000,948.242,105.957,520.508,0.000
1743892226.257,0.000,-769.043,165.039,-973.145,0.000
1743892226.261,0.000,-1000.000,-162.598,-365.723,0.000
1743892226.265,0.000,660.156,-291.992,-911.133,0.000
1743892226.269,0.000,-927.246,62.500,896.973,0.000
1743892226.273,0.000,-562.012,277.344,-711.426,0.000
1743892226.277,0.000,-1000.000,-46.387,-950.684,0.000
1743892226.280,0.000,461.426,-379.883,799.316,0.000
1743892226.284,0.000,-915.039,-49.316,-990.234,0.000
1743892226.288,0.000,-435.059,272.461,-698.242,0.000
1743892226.292,0.000,-1000.000,56.641,-1000.000,0.000
1743892226.296,0.000,-284.668,-271.973,618.164,0.000
1743892226.300,856.934,-923.828,-144.531,-834.473,0.000
1743892226.304,-811.035,412.109,149.902,-263.672,0.000
1743892226.308,-1000.000,-1000.000,135.742,-1000.000,0.000
1743892226.312,690.430,-851.562,-198.730,170.898,0.000
1743892226.316,-988.281,770.996,-211.914,-805.664,0.000
1743892226.320,-694.824,-994.629,105.957,609.375,0.000
1743892226.323,-1000.000,-705.078,202.148,-947.754,0.000
1743892226.327,576.172,-1000.000,-120.117,-666.016,0.000
1743892226.331,-918.457,687.012,-290.039,978.027,0.000
1743892226.335,-502.930,-998.535,72.754,927.246,0.000
1743892226.339,-1000.000,-666.504,277.344,-730.957,0.000
1743892226.343,121.094,-1000.000,-19.531,-1000.000,0.000
1743892226.347,517.090,349.121,-292.480,705.566,0.000
1743892226.351,-870.117,-840.332,-56.641,-942.383,0.000
1743892226.355,-342.285,-172.363,242.676,-640.137,0.000
1743892226.359,-1000.000,-1000.000,98.145,-1000.000,0.000
1743892226.362,-147.461,-480.469,-239.258,565.430,0.000
1743892226.366,-880.859,991.211,-137.207,-799.316,0.000
1743892226.370,580.078,825.195,145.996,4.395,0.000
1743892226.374,-1000.000,-880.859,140.625,-1000.000,0.000
1743892226.378,-773.926,-875.000,-145.996,38.086,0.000
1743892226.382,912.109,863.281,-207.520,-805.664,0.000
1743892226.386,891.113,942.383,90.332,597.656,0.000
1743892226.390,-801.270,-741.211,200.684,-959.961,0.000
1743892226.394,-1000.000,-1000.000,-82.520,-759.766,0.000
1743892226.398,680.176,607.910,-285.156,911.621,0.000
1743892226.402,-991.699,-948.730,-6.348,965.820,0.000
1743892226.405,-688.477,-657.227,247.559,-716.309,0.000
1743892226.409,-1000.000,-1000.000,1.465,-1000.000,0.000
1743892226.413,458.984,497.070,-360.352,664.062,0.000
1743892226.417,-843.750,-819.824,-134.766,-860.840,0.000
1743892226.421,-128.418,83.008,166.504,-472.656,0.000
1743892226.425,-1000.000,-1000.000,41.016,-1000.000,0.000
1743892226.429,-788.086,-935.059,-257.812,510.742,0.000
1743892226.433,795.410,651.367,-150.391,-770.508,0.000
1743892226.437,843.750,945.312,121.582,412.598,0.000
1743892226.441,-893.555,-814.941,169.922,-954.590,0.000
1743892226.445,-1000.000,-1000.000,-61.523,59.570,0.000
1743892226.448,677.246,667.969,-175.781,-802.246,0.000
1743892226.452,-986.816,-988.281,97.656,820.312,0.000
1743892226.456,-694.336,-684.570,282.715,-747.070,0.000
1743892226.460,-1000.000,-1000.000,41.504,-737.793,0.000
1743892226.464,583.496,518.066,-185.547,967.285,0.000
1743892226.468,-939.941,-925.293,3.418,963.379,0.000
1743892226.472,-525.879,-421.875,222.656,-685.059,0.000
1743892226.476,-1000.000,-1000.000,31.738,-1000.000,0.000
1743892226.480,81.543,-402.832,-194.336,639.648,0.000
1743892226.484,-848.633,-983.887,-61.523,-854.980,0.000
1743892226.487,15.137,219.727,167.969,-436.523,0.000
1743892226.491,-1000.000,-1000.000,136.719,-1000.000,0.000
1743892226.495,-463.379,-734.375,-147.949,445.801,0.000
1743892226.499,-970.703,882.324,-138.184,-784.180,0.000
1743892226.503,524.902,613.281,104.004,74.219,0.000
1743892226.507,-1000.000,-978.027,155.762,-1000.000,0.000
1743892226.511,-898.926,-977.051,-92.285,-245.605,0.000
1743892226.515,736.816,658.691,-219.238,-907.715,0.000
1743892226.519,-989.258,-983.398,50.781,813.477,0.000
1743892226.523,-708.008,-685.059,233.398,-800.781,0.000
1743892226.527,-1000.000,-1000.000,13.184,-948.730,0.000
1743892226.530,666.504,527.344,-228.516,782.715,0.000
1743892226.534,-941.406,-911.621,-19.043,-997.559,0.000
1743892226.538,-591.797,-525.879,244.629,-711.426,0.000
1743892226.542,-1000.000,-1000.000,82.520,-1000.000,0.000
1743892226.546,377.441,244.141,-212.402,638.184,0.000
1743892226.550,-795.898,-800.293,-115.723,-867.676,0.000
1743892226.554,74.707,221.680,159.180,-425.781,0.000
1743892226.558,-1000.000,-1000.000,146.973,-1000.000,0.000
1743892226.562,-280.762,-652.832,-170.898,318.359,0.000
1743892226.566,-909.668,951.660,-198.242,-788.574,0.000
1743892226.570,791.016,860.352,105.957,351.074,0.000
1743892226.573,-843.750,-820.801,186.035,-1000.000,0.000
1743892226.577,-916.016,-1000.000,-85.449,-522.461,0.000
1743892226.581,0.000,683.594,-230.469,-984.863,0.000
1743892226.585,0.000,-983.398,9.766,890.625,0.000
1743892226.589,0.000,-715.820,220.703,-762.207,0.000
1743892226.593,0.000,-1000.000,0.488,-968.750,0.000
1743892226.597,0.000,519.531,-283.691,725.586,0.000
1743892226.601,0.000,-804.688,-45.410,-910.645,0.000
1743892226.605,0.000,627.930,205.566,-573.242,0.000
1743892226.609,0.000,-879.883,52.734,-1000.000,0.000
1743892226.612,0.000,-188.477,-243.652,596.680,0.000
1743892226.616,0.000,-793.945,-149.902,-796.387,0.000
1743892226.620,0.000,701.660,135.254,-96.680,0.000
1743892226.624,0.000,-913.086,136.719,-1000.000,0.000
1743892226.628,-397.949,-742.188,-149.902,239.258,0.000
1743892226.632,-915.039,947.754,-179.199,-783.203,0.000
1743892226.636,901.855,960.449,95.215,626.465,0.000
1743892226.640,-710.449,-704.590,181.152,-925.293,0.000
1743892226.644,-947.266,-1000.000,-85.938,-608.398,0.000
1743892226.648,753.418,607.910,-241.211,-996.094,0.000
1743892226.652,-894.043,-796.387,9.766,940.918,0.000
1743892226.655,-524.414,-223.145,215.332,-693.848,0.000
1743892226.659,-1000.000,-1000.000,18.555,-1000.000,0.000
1743892226.663,597.168,431.641,-294.922,687.988,0.000
1743892226.667,-794.922,-770.508,-89.355,-910.645,0.000
1743892226.671,-123.535,41.992,184.570,-583.984,0.000
1743892226.675,-1000.000,-1000.000,71.289,-1000.000,0.000
1743892226.679,245.117,-95.215,-221.191,549.805,0.000
1743892226.683,-793.457,-875.488,-129.395,-780.273,0.000
1743892226.687,712.402,859.375,123.047,110.840,0.000
1743892226.691,-852.051,-764.160,155.762,-1000.000,0.000
1743892226.695,-494.141,-718.750,-128.906,126.953,0.000
1743892226.698,-934.570,987.305,-200.684,-799.316,0.000
1743892226.702,922.852,954.102,67.871,738.770,0.000
1743892226.706,-705.078,-707.520,208.984,-839.844,0.000
1743892226.710,-940.430,-988.770,-26.855,-676.758,0.000
1743892226.714,758.301,688.965,-237.305,987.793,0.000
1743892226.718,-883.301,-864.746,0.000,950.195,0.000
1743892226.722,-501.953,-419.922,249.512,-699.219,0.000
1743892226.726,-1000.000,-1000.000,26.855,-999.023,0.000
1743892226.730,540.527,349.121,-286.133,627.441,0.000
1743892226.734,-762.207,-754.883,-103.516,-798.340,0.000
1743892226.737,352.051,461.426,136.230,-247.070,0.000
1743892226.741,-961.914,-969.238,100.098,-975.098,0.000
1743892226.745,174.805,12.207,-188.477,527.344,0.000
1743892226.749,-799.316,-812.500,-156.250,-769.531,0.000
1743892226.753,824.707,838.379,103.516,549.805,0.000
1743892226.757,-706.055,-664.551,154.297,-856.445,0.000
1743892226.761,-881.836,-1000.000,-130.371,77.148,0.000
1743892226.765,864.258,692.383,-218.750,-794.434,0.000
1743892226.769,0.000,-961.426,60.059,849.609,0.000
1743892226.773,0.000,-629.883,208.496,-710.938,0.000
1743892226.777,0.000,-1000.000,-37.109,-695.801,0.000
1743892226.780,0.000,375.488,-277.832,923.828,0.000
1743892226.784,0.000,-790.039,-55.664,-893.555,0.000
1743892226.788,0.000,388.184,135.254,-358.887,0.000
1743892226.792,0.000,-1000.000,31.250,-976.562,0.000
1743892226.796,0.000,-462.891,-232.910,579.590,0.000
1743892226.800,0.000,-923.340,-148.926,-745.605,0.000
1743892226.804,0.000,771.484,79.590,185.547,0.000
1743892226.808,0.000,-898.438,116.699,-856.445,0.000
1743892226.812,0.000,-875.000,-143.555,465.332,0.000
1743892226.816,965.332,822.754,-193.848,-779.785,0.000
1743892226.820,951.660,-974.609,26.367,763.184,0.000
1743892226.823,-704.590,-613.770,179.199,-674.316,0.000
1743892226.827,-990.234,-1000.000,-103.027,60.547,0.000
1743892226.831,571.777,422.363,-269.043,-886.230,0.000
1743892226.835,-812.500,-812.012,-17.090,-938.477,0.000
1743892226.839,371.094,605.469,93.750,55.664,0.000
1743892226.843,-1000.000,-816.895,18.066,-564.453,0.000
1743892226.847,-510.742,-1000.000,-145.996,813.477,0.000
1743892226.851,-925.293,500.488,-103.027,-789.551,0.000
1743892226.855,521.484,786.133,49.805,81.543,0.000
1743892226.859,-1000.000,-969.727,50.781,-859.863,0.000
1743892226.862,-775.879,-994.629,-154.297,514.648,0.000
1743892226.866,892.090,691.406,-139.648,-728.027,0.000
1743892226.870,877.930,991.211,86.914,458.008,0.000
1743892226.874,-843.262,-749.023,169.922,-758.301,0.000
1743892226.878,-972.168,-1000.000,-109.375,359.863,0.000
1743892226.882,743.164,697.266,-173.828,-765.625,0.000
1743892226.886,-996.582,989.746,80.078,747.559,0.000
1743892226.890,-694.824,-641.602,177.246,-767.090,0.000
1743892226.894,-1000.000,-1000.000,-90.820,-371.094,0.000
1743892226.898,622.070,268.555,-230.957,-884.766,0.000
1743892226.902,-997.070,-968.750,10.742,903.809,0.000
1743892226.905,-596.680,-453.613,205.078,-699.707,0.000
1743892226.909,-1000.000,-1000.000,6.836,-920.898,0.000
1743892226.913,-8.301,-592.285,-218.750,776.855,0.000
1743892226.917,-904.297,915.039,-80.078,-883.301,0.000
1743892226.921,-110.840,245.117,135.254,-487.793,0.000
1743892226.925,-1000.000,-1000.000,76.660,-1000.000,0.000
1743892226.929,-643.555,-775.879,-210.938,574.707,0.000
1743892226.933,923.340,807.129,-128.906,-777.344,0.000
1743892226.937,717.285,951.660,101.562,189.453,0.000
1743892226.941,-968.750,-764.648,100.586,-1000.000,0.000
1743892226.944,-973.145,-1000.000,-149.414,108.398,0.000
1743892226.948,709.473,685.059,-212.402,-781.250,0.000
1743892226.952,967.285,999.512,63.965,646.973,0.000
1743892226.956,-767.090,-702.148,191.406,-913.574,0.000
1743892226.960,-1000.000,-1000.000,-109.375,-751.953,0.000
1743892226.964,667.969,546.387,-290.039,931.152,0.000
1743892226.968,-983.398,-931.641,-0.977,962.402,0.000
1743892226.972,-700.684,-652.344,236.816,-713.379,0.000
1743892226.976,-1000.000,-1000.000,13.672,-1000.000,0.000
1743892226.980,549.805,562.500,-291.992,698.242,0.000
1743892226.984,-876.465,-843.750,-101.074,-915.039,0.000
1743892226.987,-268.555,-102.539,198.730,-573.242,0.000
1743892226.991,-1000.000,-1000.000,70.312,-1000.000,0.000
1743892226.995,-621.094,-899.414,-197.266,526.367,0.000
1743892226.999,931.641,700.195,-143.066,-800.781,0.000
1743892227.003,561.035,706.055,86.426,-3.418,0.000
1743892227.007,-1000.000,-1000.000,123.047,-1000.000,0.000
1743892227.011,-921.875,-975.586,-132.812,-57.617,0.000
1743892227.015,707.031,660.156,-241.699,-840.332,0.000
1743892227.019,889.160,919.922,40.039,585.449,0.000
1743892227.023,-777.832,-748.535,209.961,-948.242,0.000
1743892227.027,-1000.000,-1000.000,-67.871,-775.879,0.000
1743892227.030,679.199,685.059,-316.406,896.484,0.000
1743892227.034,996.582,979.004,-34.668,966.309,0.000
1743892227.038,-652.832,-622.559,208.984,-711.914,0.000
1743892227.042,-1000.000,-1000.000,5.859,-1000.000,0.000
1743892227.046,284.180,-15.625,-229.492,667.480,0.000
1743892227.050,-891.602,-919.922,-83.984,-933.105,0.000
1743892227.054,-296.875,-194.824,198.242,-590.332,0.000
1743892227.058,-1000.000,-1000.000,102.539,-1000.000,0.000
1743892227.062,-652.832,-816.895,-202.637,421.387,0.000
1743892227.066,904.785,743.652,-191.895,-802.246,0.000
1743892227.069,654.297,846.191,87.402,113.770,0.000
1743892227.073,-1000.000,-903.320,144.531,-1000.000,0.000
1743892227.077,-969.727,-1000.000,-127.930,-372.559,0.000
1743892227.081,698.242,676.270,-259.766,-914.062,0.000
1743892227.085,955.078,-994.629,4.395,656.250,0.000
1743892227.089,-789.062,-714.844,173.828,-949.707,0.000
1743892227.093,-1000.000,-1000.000,-68.359,-929.688,0.000
1743892227.097,677.734,630.859,-298.340,755.859,0.000
1743892227.101,-981.445,-980.957,-48.340,988.770,0.000
1743892227.105,-718.262,-675.781,243.164,-737.305,0.000
1743892227.109,-1000.000,-1000.000,-12.695,-1000.000,0.000
1743892227.112,539.551,366.699,-334.961,630.371,0.000
1743892227.116,-785.645,-810.059,-125.488,-842.285,0.000
1743892227.120,340.332,612.305,179.199,-412.109,0.000
1743892227.124,-1000.000,-942.383,108.398,-1000.000,0.000
1743892227.128,-35.645,-694.824,-229.980,449.219,0.000
1743892227.132,-812.500,997.070,-215.820,-779.297,0.000
1743892227.136,765.625,837.402,90.332,385.254,0.000
1743892227.140,-829.590,-850.586,150.879,-1000.000,0.000
1743892227.144,-796.875,-960.449,-142.090,-262.207,0.000
1743892227.148,916.504,721.680,-260.742,-886.230,0.000
1743892227.152,982.910,-919.922,36.133,855.469,0.000
1743892227.155,-675.781,-591.309,207.031,-748.535,0.000
1743892227.159,-1000.000,-1000.000,-32.715,-929.688,0.000
1743892227.163,659.668,670.410,-260.742,819.824,0.000
1743892227.167,-920.410,-952.148,-1.953,995.605,0.000
1743892227.171,-568.848,-537.109,255.371,-708.496,0.000
1743892227.175,-1000.000,-1000.000,57.129,-1000.000,0.000
1743892227.179,425.781,86.426,-257.812,652.344,0.000
1743892227.183,-804.199,-856.445,-112.305,-903.320,0.000
1743892227.187,-6.348,-2.441,181.152,-483.398,0.000
1743892227.191,-1000.000,-1000.000,101.562,-1000.000,0.000
1743892227.194,-266.113,-692.383,-200.684,256.348,0.000
1743892227.198,-915.527,881.836,-193.359,-803.223,0.000
1743892227.202,803.223,883.301,89.844,189.453,0.000
1743892227.206,-841.309,-854.980,163.574,-1000.000,0.000
1743892227.210,-883.301,-936.035,-96.191,-543.457,0.000
1743892227.214,848.145,790.039,-255.371,997.070,0.000
1743892227.218,987.793,995.117,20.020,839.844,0.000
1743892227.222,-709.473,-696.777,192.383,-816.895,0.000
1743892227.226,-1000.000,-1000.000,-58.594,-1000.000,0.000
1743892227.230,631.348,552.246,-293.945,699.707,0.000
1743892227.234,-853.516,-854.004,-43.457,-987.305,0.000
1743892227.237,-384.277,-332.520,238.770,-701.172,0.000
1743892227.241,-1000.000,-1000.000,42.480,-1000.000,0.000
1743892227.245,294.434,23.438,-284.668,578.125,0.000
1743892227.249,-778.809,-819.336,-142.090,-874.512,0.000
1743892227.253,400.879,500.977,165.039,-400.879,0.000
1743892227.257,-1000.000,-1000.000,125.977,-1000.000,0.000
1743892227.261,-389.160,-564.941,-148.926,127.441,0.000
1743892227.265,-918.945,-979.492,-190.918,-816.895,0.000
1743892227.269,850.586,883.301,75.195,317.871,0.000
1743892227.273,-756.348,-752.930,198.730,-1000.000,0.000
1743892227.276,-1000.000,-1000.000,-67.383,-747.070,0.000
1743892227.280,708.496,655.762,-238.281,883.789,0.000
1743892227.284,0.000,-914.062,31.738,919.434,0.000
1743892227.288,0.000,-580.566,220.703,-775.391,0.000
1743892227.292,0.000,-1000.000,-11.719,-1000.000,0.000
1743892227.296,0.000,462.402,-315.918,681.641,0.000
1743892227.300,0.000,-780.762,-82.031,-969.238,0.000
1743892227.304,0.000,376.465,222.656,-678.223,0.000
1743892227.308,0.000,-1000.000,83.008,-1000.000,0.000
1743892227.312,0.000,-211.426,-249.023,541.504,0.000
1743892227.316,0.000,-828.613,-166.016,-831.543,0.000
1743892227.319,0.000,687.500,135.254,-187.500,0.000
1743892227.323,0.000,-912.109,142.578,-1000.000,0.000
1743892227.327,0.000,-901.367,-137.695,-51.270,0.000
1743892227.331,-974.121,869.629,-189.453,-839.355,0.000
1743892227.335,694.336,804.688,164.551,-8.301,0.000
1743892227.339,-1000.000,-971.191,214.844,-1000.000,0.000
1743892227.343,-549.805,-812.012,-187.012,-78.613,0.000
1743892227.347,-977.051,882.324,-252.441,-845.703,0.000
1743892227.351,928.711,978.516,175.293,689.941,0.000
1743892227.355,-694.336,-699.707,310.547,-911.133,0.000
1743892227.359,-1000.000,-1000.000,-84.961,-856.445,0.000
1743892227.362,707.520,681.152,-313.965,855.469,0.000
1743892227.366,-967.773,-981.445,56.152,976.562,0.000
1743892227.370,-689.453,-685.059,347.656,-715.332,0.000
1743892227.374,-1000.000,-1000.000,20.508,-1000.000,0.000
1743892227.378,577.637,455.566,-396.484,670.898,0.000
1743892227.382,-806.152,-795.898,-88.867,-952.148,0.000
1743892227.386,-41.504,103.516,316.895,-604.492,0.000
1743892227.390,-1000.000,-1000.000,105.469,-1000.000,0.000
1743892227.394,37.598,-236.328,-310.059,370.117,0.000
1743892227.398,-809.082,-906.738,-197.266,-813.477,0.000
1743892227.401,627.930,851.562,208.008,-8.789,0.000
1743892227.405,-937.500,-752.930,179.688,-1000.000,0.000
1743892227.409,-817.383,-971.191,-212.891,-428.711,0.000
1743892227.413,886.230,774.902,-333.984,-953.613,0.000
1743892227.417,957.031,-994.629,85.938,724.609,0.000
1743892227.421,-727.539,-709.473,284.668,-920.410,0.000
1743892227.425,0.000,-1000.000,-121.582,-949.707,0.000
1743892227.429,0.000,661.133,-404.297,742.676,0.000
1743892227.433,0.000,-922.852,-12.695,-994.141,0.000
1743892227.437,0.000,-537.598,322.754,-714.355,0.000
1743892227.441,0.000,-1000.000,36.133,-1000.000,0.000
1743892227.444,0.000,285.645,-309.570,528.809,0.000
1743892227.448,0.000,-863.770,-202.637,-821.289,0.000
1743892227.452,0.000,854.004,79.590,667.480,0.000
1743892227.456,0.000,-637.207,194.824,-853.516,0.000
1743892227.460,0.000,-1000.000,-84.961,-310.547,0.000
1743892227.464,0.000,691.895,-250.977,-865.723,0.000
1743892227.468,0.000,-938.965,29.297,851.074,0.000
1743892227.472,-1000.000,-631.348,226.074,-720.703,0.000
1743892227.476,678.223,-1000.000,-5.859,-1000.000,0.000
1743892227.480,-978.027,552.246,-274.414,730.957,0.000
1743892227.484,-645.996,-791.504,-57.617,-986.816,0.000
1743892227.487,-1000.000,-293.457,232.422,-707.520,0.000
1743892227.491,336.426,-1000.000,42.480,-1000.000,0.000
1743892227.495,-868.652,624.512,-336.426,686.523,0.000
1743892227.499,861.816,-999.512,-57.129,-998.535,0.000
1743892227.503,-670.898,-605.957,313.965,-691.406,0.000
1743892227.507,-892.090,-1000.000,14.160,-1000.000,0.000
1743892227.511,873.047,-130.859,-354.980,518.555,0.000
1743892227.515,985.352,-934.570,-163.574,-959.961,0.000
1743892227.519,-279.297,-90.820,278.809,-539.062,0.000
1743892227.523,-1000.000,-1000.000,112.305,-1000.000,0.000
1743892227.526,-619.629,-729.492,-294.922,-74.707,0.000
1743892227.530,933.105,857.422,-262.207,-885.742,0.000
1743892227.534,614.258,782.715,127.441,115.234,0.000
1743892227.538,-1000.000,-938.965,186.035,-1000.000,0.000
1743892227.542,-959.961,-986.816,-181.641,-729.004,0.000
1743892227.546,684.082,691.895,-359.863,875.488,0.000
1743892227.550,997.559,-991.699,40.527,860.352,0.000
1743892227.554,-710.938,-685.059,266.113,-851.074,0.000
1743892227.558,-1000.000,-1000.000,-99.609,-1000.000,0.000
1743892227.562,594.238,542.969,-399.414,679.688,0.000
1743892227.566,-1000.000,-958.984,-66.406,-988.281,0.000
1743892227.569,-581.543,-492.676,328.125,-692.871,0.000
1743892227.573,-1000.000,-1000.000,19.531,-1000.000,0.000
1743892227.577,-158.691,-367.676,-386.719,521.973,0.000
1743892227.581,-923.340,-954.102,-219.727,-860.352,0.000
1743892227.585,35.645,367.188,204.590,-347.656,0.000
1743892227.589,-1000.000,-1000.000,180.664,-1000.000,0.000
1743892227.593,-603.027,-574.707,-256.836,-9.277,0.000
1743892227.597,962.402,-997.070,-313.477,-838.379,0.000
1743892227.601,767.090,829.102,108.887,449.707,0.000
1743892227.605,-912.109,-830.078,233.887,-1000.000,0.000
1743892227.608,-999.512,-1000.000,-152.832,-779.785,0.000
1743892227.612,683.105,684.082,-349.609,875.000,0.000
1743892227.616,-989.746,-996.582,53.711,948.242,0.000
1743892227.620,-691.406,-676.758,331.543,-742.676,0.000
1743892227.624,-1000.000,-1000.000,-26.855,-1000.000,0.000
1743892227.628,542.969,400.391,-409.668,677.246,0.000
1743892227.632,-909.180,-839.844,-117.188,-973.633,0.000
1743892227.636,-420.410,-139.648,311.523,-653.320,0.000
1743892227.640,-1000.000,-1000.000,85.449,-1000.000,0.000
1743892227.644,-177.246,-568.359,-323.242,438.965,0.000
1743892227.648,-900.879,986.328,-203.125,-835.449,0.000
1743892227.651,261.719,529.297,218.262,-192.871,0.000
1743892227.655,-1000.000,-1000.000,162.598,-1000.000,0.000
1743892227.659,-814.941,-944.824,-248.047,-261.719,0.000
1743892227.663,822.266,708.984,-303.711,-901.367,0.000
1743892227.667,861.328,935.059,127.930,613.281,0.000
1743892227.671,-866.211,-816.895,261.230,-987.305,0.000
1743892227.675,-1000.000,-1000.000,-123.535,-876.953,0.000
1743892227.679,685.547,673.828,-339.355,801.758,0.000
